# EEG Data - Muse 2
# Channels: TP9,AF7,AF8,TP10
# SamplingRate: 256
# StartTime: 2026-03-09T19:30:57.003Z
# Format: uncorrected_time,corrected_time,TP9,AF7,AF8,TP10
0.0430,0.0430,-1000.00,-1000.00,0.00,0.00
0.0430,0.0430,-218.26,191.41,0.00,0.00
0.0430,0.0430,-956.05,-887.21,0.00,0.00
0.0430,0.0430,956.54,911.13,0.00,0.00
0.0430,0.0430,945.31,974.61,0.00,0.00
0.0430,0.0430,979.98,974.12,0.00,0.00
0.0430,0.0430,973.14,973.63,0.00,0.00
0.0430,0.0430,972.66,973.63,0.00,0.00
0.0431,0.0431,985.35,979.98,0.00,0.00
0.0431,0.0431,898.44,904.30,0.00,0.00
0.0431,0.0431,-894.53,-885.74,0.00,0.00
0.0431,0.0431,452.64,294.43,0.00,0.00
0.0864,0.0864,-961.91,-1000.00,-987.30,-947.27
0.0864,0.0864,-1000.00,-1000.00,-1000.00,-1000.00
0.0864,0.0864,-951.66,-964.84,-958.01,-949.71
0.0864,0.0864,-1000.00,-1000.00,-985.35,-1000.00
0.0864,0.0864,-1000.00,-1000.00,-990.72,-1000.00
0.0864,0.0864,-1000.00,-1000.00,-980.96,-1000.00
0.0864,0.0864,-1000.00,-1000.00,-1000.00,-1000.00
0.0864,0.0864,-1000.00,-1000.00,-783.20,-1000.00
0.0864,0.0864,-927.25,-937.50,-587.40,-927.25
0.0864,0.0864,-1000.00,-1000.00,-1000.00,-1000.00
0.0864,0.0864,-415.04,-218.26,-233.89,-414.55
0.0864,0.0864,968.26,-955.08,-949.71,969.24
0.1343,0.1343,990.23,957.52,959.96,990.72
0.1343,0.1343,929.69,946.29,944.82,930.66
0.1343,0.1343,985.35,980.47,965.82,985.84
0.1343,0.1343,972.66,973.63,965.33,973.63
0.1343,0.1343,972.66,973.63,961.91,973.63
0.1343,0.1343,979.49,985.35,-960.45,979.00
0.1343,0.1343,945.31,928.22,612.79,951.17
0.1343,0.1343,956.54,-997.07,669.92,948.73
0.1343,0.1343,-955.57,911.62,-944.82,-938.96
0.1343,0.1343,-218.26,-456.54,-324.22,-157.23
0.1343,0.1343,-1000.00,-1000.00,-1000.00,-1000.00
0.1343,0.1343,-937.50,-933.11,-945.31,-942.38
0.1797,0.1797,-1000.00,-1000.00,-981.93,-997.56
0.1797,0.1797,-1000.00,-1000.00,-958.01,-1000.00
0.1797,0.1797,-1000.00,-1000.00,-994.14,-1000.00
0.1797,0.1797,-1000.00,-1000.00,-1000.00,-1000.00
0.1797,0.1797,-1000.00,-1000.00,-998.54,-1000.00
0.1797,0.1797,-958.98,-925.29,-807.62,-958.98
0.1797,0.1797,-1000.00,-1000.00,-1000.00,-1000.00
0.1797,0.1797,-974.12,-503.91,-671.39,-974.12
0.1797,0.1797,373.54,922.85,793.95,374.02
0.1797,0.1797,-899.90,-991.70,-965.33,-898.93
0.1797,0.1797,905.76,923.34,922.36,906.74
0.1797,0.1797,980.47,988.28,957.03,980.96
0.2239,0.2239,973.14,974.12,942.87,973.63
0.2239,0.2239,973.14,973.63,954.59,973.63
0.2239,0.2239,973.14,973.63,-983.89,973.63
0.2239,0.2239,973.63,974.12,872.07,974.61
0.2239,0.2239,910.16,911.13,579.59,910.64
0.2239,0.2239,-888.18,-887.70,-914.55,-887.70
0.2239,0.2239,190.92,187.01,207.03,191.41
0.2239,0.2239,-1000.00,-1000.00,-1000.00,-1000.00
0.2239,0.2239,-984.38,-983.40,-979.49,-983.89
0.2239,0.2239,-973.14,-973.63,-973.63,-973.14
0.2239,0.2239,-1000.00,-1000.00,-1000.00,-1000.00
0.2239,0.2239,-1000.00,-1000.00,-992.19,-1000.00
0.2681,0.2681,-1000.00,-1000.00,-1000.00,-1000.00
0.2681,0.2681,-1000.00,-1000.00,-1000.00,-1000.00
0.2681,0.2681,-1000.00,-973.14,-782.23,-1000.00
0.2681,0.2681,-937.50,-984.38,-870.12,-937.50
0.2681,0.2681,-1000.00,-1000.00,-1000.00,-1000.00
0.2681,0.2681,-218.26,191.41,53.71,-218.26
0.2681,0.2681,-955.57,-887.21,-911.62,-955.08
0.2681,0.2681,956.54,910.64,929.20,957.52
0.2681,0.2681,945.80,974.61,959.96,946.29
0.2681,0.2681,979.98,974.12,940.92,979.98
0.2681,0.2681,973.14,973.63,962.89,973.63
0.2681,0.2681,973.14,973.63,982.42,973.63
0.3264,0.3264,985.35,979.98,979.00,987.30
0.3265,0.3265,898.44,904.30,834.47,898.44
0.3265,0.3265,-893.55,-885.74,-912.60,-896.00
0.3265,0.3265,442.87,300.78,408.20,480.96
0.3265,0.3265,-967.29,-1000.00,-991.70,-947.27
0.3265,0.3265,-1000.00,-1000.00,-1000.00,-1000.00
0.3265,0.3265,-952.64,-964.36,-958.01,-949.71
0.3265,0.3265,-1000.00,-1000.00,-989.75,-1000.00
0.3265,0.3265,-1000.00,-1000.00,-994.63,-1000.00
0.3265,0.3265,-1000.00,-1000.00,-979.00,-1000.00
0.3265,0.3265,-1000.00,-1000.00,-1000.00,-1000.00
0.3265,0.3265,-1000.00,-1000.00,-772.46,-1000.00
0.3715,0.3715,-927.25,-937.50,-576.17,-927.25
0.3715,0.3715,-1000.00,-1000.00,-1000.00,-1000.00
0.3715,0.3715,-415.04,-217.77,-230.47,-411.13
0.3715,0.3715,968.75,-954.59,-948.24,970.70
0.3715,0.3715,990.23,957.03,958.98,990.23
0.3715,0.3715,930.18,946.29,945.31,930.66
0.3715,0.3715,985.35,980.47,972.17,985.84
0.3715,0.3715,973.14,973.63,967.77,973.63
0.3715,0.3715,972.66,973.63,958.98,973.63
0.3715,0.3715,979.49,984.86,-963.38,978.03
0.3716,0.3716,945.80,930.18,615.23,953.61
0.3716,0.3716,956.54,996.58,671.39,943.85
0.4198,0.4198,-955.57,931.15,-934.57,-930.18
0.4198,0.4198,-218.26,-425.78,-302.25,-124.51
0.4198,0.4198,-1000.00,-1000.00,-1000.00,-1000.00
0.4198,0.4198,-937.50,-933.11,-947.75,-945.31
0.4198,0.4198,-1000.00,-1000.00,-979.49,-995.61
0.4198,0.4198,-1000.00,-1000.00,-946.29,-1000.00
0.4198,0.4198,-1000.00,-1000.00,-992.68,-1000.00
0.4198,0.4198,-1000.00,-1000.00,-1000.00,-1000.00
0.4198,0.4198,-1000.00,-1000.00,-998.05,-1000.00
0.4198,0.4198,-1000.00,-925.78,-811.04,-1000.00
0.4198,0.4198,-980.96,-1000.00,-1000.00,-980.96
0.4198,0.4198,-969.73,-497.56,-683.11,-969.73
0.4643,0.4643,-1000.00,926.27,780.27,-1000.00
0.4644,0.4644,88.87,-992.68,-961.43,89.36
0.4644,0.4644,-895.51,923.83,917.97,-894.53
0.4644,0.4644,918.46,988.28,972.17,918.95
0.4644,0.4644,967.77,973.63,958.98,968.26
0.4644,0.4644,974.12,973.63,958.98,974.61
0.4644,0.4644,972.66,973.63,-990.23,973.63
0.4644,0.4644,975.10,986.82,895.02,974.12
0.4644,0.4644,960.45,898.93,702.64,971.19
0.4644,0.4644,930.18,-895.02,964.84,915.04
0.4644,0.4644,-910.64,468.26,916.50,-891.11
0.4644,0.4644,-20.51,-954.10,-292.97,139.16
0.5100,0.5100,-1000.00,-1000.00,-1000.00,-1000.00
0.5100,0.5100,-956.05,-950.68,-956.54,-976.56
0.5100,0.5100,-988.77,-1000.00,-995.12,-977.05
0.5100,0.5100,-1000.00,-1000.00,-996.09,-1000.00
0.5100,0.5100,-1000.00,-1000.00,-1000.00,-1000.00
0.5100,0.5100,-1000.00,-1000.00,-1000.00,-1000.00
0.5100,0.5100,-1000.00,-973.14,-836.91,-1000.00
0.5100,0.5100,-1000.00,-983.89,-892.09,-1000.00
0.5100,0.5100,-937.50,-1000.00,-1000.00,-937.50
0.5100,0.5100,-1000.00,191.41,15.14,-1000.00
0.5100,0.5100,-218.26,-887.21,-915.04,-218.26
0.5100,0.5100,-955.57,910.64,931.64,-955.08
0.5536,0.5536,956.54,974.61,959.47,957.52
0.5536,0.5536,945.80,974.12,959.47,946.29
0.5536,0.5536,979.49,973.63,968.75,980.47
0.5537,0.5537,972.66,973.63,978.52,973.63
0.5537,0.5537,983.89,989.26,980.96,980.47
0.5537,0.5537,930.66,907.23,885.74,945.80
0.5537,0.5537,993.65,-936.04,-983.89,958.98
0.5537,0.5537,937.99,696.78,783.20,-959.96
0.5537,0.5537,-414.55,-752.44,-580.57,-227.54
0.5537,0.5537,-1000.00,-1000.00,-1000.00,-1000.00
0.5537,0.5537,-933.11,-936.52,-942.38,-937.50
0.5537,0.5537,-1000.00,-1000.00,-988.28,-1000.00
0.5967,0.5967,-1000.00,-1000.00,-995.12,-1000.00
0.5967,0.5967,-1000.00,-1000.00,-980.47,-1000.00
0.5968,0.5968,-1000.00,-1000.00,-1000.00,-1000.00
0.5968,0.5968,-1000.00,-1000.00,-795.41,-1000.00
0.5968,0.5968,-927.25,-937.50,-606.93,-927.25
0.5968,0.5968,-1000.00,-1000.00,-1000.00,-1000.00
0.5968,0.5968,-415.04,-217.77,-230.96,-414.55
0.5968,0.5968,968.75,-955.08,-949.22,969.24
0.5968,0.5968,990.23,957.52,958.98,990.72
0.5968,0.5968,929.69,946.29,945.31,930.18
0.5968,0.5968,985.35,980.47,974.12,985.84
0.5968,0.5968,973.14,973.63,967.77,973.63
0.6446,0.6446,972.66,973.63,957.03,973.63
0.6447,0.6447,979.98,985.35,-964.84,979.00
0.6447,0.6447,945.80,928.22,603.52,950.20
0.6447,0.6447,956.54,-997.56,675.29,949.22
0.6447,0.6447,-955.57,913.09,-943.85,-940.92
0.6447,0.6447,-218.26,-454.10,-330.08,-164.06
0.6447,0.6447,-1000.00,-1000.00,-1000.00,-1000.00
0.6447,0.6447,-937.50,-933.11,-942.87,-941.89
0.6447,0.6447,-1000.00,-1000.00,-987.79,-998.05
0.6447,0.6447,-1000.00,-1000.00,-968.75,-1000.00
0.6447,0.6447,-1000.00,-1000.00,-995.12,-1000.00
0.6447,0.6447,-1000.00,-1000.00,-1000.00,-1000.00
0.7046,0.7046,-1000.00,-1000.00,-1000.00,-1000.00
0.7047,0.7047,-968.26,-926.27,-824.71,-967.29
0.7047,0.7047,-996.09,-1000.00,-1000.00,-999.02
0.7047,0.7047,-1000.00,-470.21,-659.67,-1000.00
0.7047,0.7047,253.42,940.43,801.76,269.53
0.7047,0.7047,-892.09,-998.05,-967.77,-892.58
0.7047,0.7047,908.69,925.78,926.27,909.18
0.7047,0.7047,976.07,987.30,939.94,977.54
0.7047,0.7047,973.14,973.63,927.73,974.12
0.7047,0.7047,973.14,973.63,953.13,973.63
0.7047,0.7047,973.14,974.12,-982.42,973.63
0.7047,0.7047,973.63,973.14,849.61,974.61
0.7497,0.7497,910.16,912.60,541.02,910.64
0.7497,0.7497,-888.18,-889.16,-911.62,-887.21
0.7497,0.7497,190.92,167.97,203.13,190.92
0.7497,0.7497,-1000.00,-1000.00,-1000.00,-1000.00
0.7497,0.7497,-984.38,-980.96,-978.52,-983.89
0.7497,0.7497,-973.14,-975.10,-974.12,-973.14
0.7498,0.7498,-1000.00,-1000.00,-1000.00,-1000.00
0.7498,0.7498,-1000.00,-1000.00,-992.68,-1000.00
0.7498,0.7498,-1000.00,-1000.00,-1000.00,-1000.00
0.7498,0.7498,-1000.00,-1000.00,-1000.00,-1000.00
0.7498,0.7498,-1000.00,-973.14,-826.17,-1000.00
0.7498,0.7498,-937.50,-983.89,-892.09,-937.50
0.7950,0.7950,-1000.00,-1000.00,-1000.00,-1000.00
0.7950,0.7950,-218.26,191.41,34.18,-218.26
0.7950,0.7950,-955.57,-887.21,-913.57,-955.08
0.7950,0.7950,956.54,910.64,931.15,957.52
0.7950,0.7950,945.80,974.61,958.01,946.29
0.7950,0.7950,979.98,973.63,941.89,980.47
0.7950,0.7950,973.14,973.63,964.84,973.63
0.7950,0.7950,972.66,973.63,981.93,973.63
0.7950,0.7950,983.40,979.49,978.52,987.30
0.7950,0.7950,899.90,904.79,841.80,898.44
0.7950,0.7950,-889.65,-885.74,-909.18,-896.00
0.7950,0.7950,387.70,285.64,384.28,480.96
0.8392,0.8392,-996.09,-1000.00,-1000.00,-947.27
0.8392,0.8392,-1000.00,-999.51,-1000.00,-1000.00
0.8392,0.8392,-957.03,-965.82,-959.47,-949.71
0.8392,0.8392,-1000.00,-1000.00,-987.79,-1000.00
0.8392,0.8392,-1000.00,-1000.00,-993.65,-1000.00
0.8392,0.8392,-1000.00,-1000.00,-981.45,-1000.00
0.8392,0.8392,-1000.00,-1000.00,-1000.00,-1000.00
0.8392,0.8392,-1000.00,-1000.00,-781.74,-1000.00
0.8392,0.8392,-925.78,-937.50,-606.45,-925.78
0.8392,0.8392,-1000.00,-1000.00,-1000.00,-1000.00
0.8392,0.8392,-493.16,-218.26,-230.96,-479.98
0.8392,0.8392,927.73,-954.59,-950.68,935.55
0.8816,0.8816,-994.63,957.52,958.98,-996.09
0.8816,0.8816,923.34,946.29,945.31,924.80
0.8816,0.8816,987.30,980.47,980.96,987.30
0.8816,0.8816,973.14,973.63,970.21,973.63
0.8816,0.8816,973.14,973.63,963.38,973.63
0.8816,0.8816,979.98,985.35,-970.21,978.52
0.8816,0.8816,945.80,929.20,651.86,951.66
0.8816,0.8816,956.54,-1000.00,726.56,946.78
0.8816,0.8816,-955.57,920.41,-960.94,-935.55
0.8816,0.8816,-218.26,-442.87,-333.98,-145.02
0.8816,0.8816,-1000.00,-1000.00,-1000.00,-1000.00
0.8816,0.8816,-937.50,-933.11,-945.80,-943.85
0.9299,0.9299,-1000.00,-1000.00,-981.45,-997.07
0.9300,0.9300,-1000.00,-1000.00,-957.52,-1000.00
0.9300,0.9300,-1000.00,-1000.00,-995.12,-1000.00
0.9300,0.9300,-1000.00,-1000.00,-1000.00,-1000.00
0.9300,0.9300,-1000.00,-1000.00,-999.02,-1000.00
0.9300,0.9300,-958.98,-926.27,-809.57,-957.52
0.9300,0.9300,-1000.00,-1000.00,-1000.00,-1000.00
0.9300,0.9300,-974.12,-453.61,-640.14,-962.40
0.9300,0.9300,373.54,949.22,824.22,392.09
0.9301,0.9301,-899.90,999.02,-972.17,-901.37
0.9301,0.9301,905.76,927.25,926.76,906.25
0.9301,0.9301,980.47,986.82,943.85,981.45
0.9747,0.9747,973.14,973.63,931.15,973.63
0.9747,0.9747,973.14,973.63,952.15,973.63
0.9747,0.9747,973.14,974.12,-978.03,973.63
0.9747,0.9747,973.63,973.14,837.40,974.12
0.9747,0.9747,910.16,912.60,533.69,910.64
0.9747,0.9747,-888.18,-889.16,-906.25,-887.21
0.9747,0.9747,190.92,167.48,203.61,190.92
0.9747,0.9747,-1000.00,-1000.00,-1000.00,-1000.00
0.9747,0.9747,-984.38,-980.47,-979.00,-984.38
0.9747,0.9747,-973.14,-975.10,-974.12,-973.14
0.9747,0.9747,-1000.00,-1000.00,-1000.00,-1000.00
0.9747,0.9747,-1000.00,-1000.00,-993.16,-1000.00
1.0196,1.0196,-1000.00,-1000.00,-1000.00,-1000.00
1.0196,1.0196,-1000.00,-1000.00,-1000.00,-1000.00
1.0196,1.0196,-1000.00,-971.68,-831.54,-1000.00
1.0196,1.0196,-937.50,-987.30,-897.46,-937.50
1.0196,1.0196,-1000.00,-1000.00,-1000.00,-1000.00
1.0196,1.0196,-218.26,208.01,51.76,-218.26
1.0196,1.0196,-955.57,-888.18,-909.67,-955.08
1.0196,1.0196,956.54,910.16,927.73,957.52
1.0196,1.0196,945.31,975.10,961.43,946.29
1.0196,1.0196,979.98,974.12,958.50,980.47
1.0196,1.0196,973.14,973.63,967.29,973.63
1.0196,1.0196,973.14,973.63,981.45,973.63
1.0646,1.0646,983.40,979.49,978.03,987.30
1.0646,1.0646,899.90,904.79,825.68,898.44
1.0646,1.0646,-889.65,-885.74,-912.60,-896.00
1.0646,1.0646,387.21,286.62,388.18,480.96
1.0646,1.0646,-996.09,-1000.00,-1000.00,-947.27
1.0646,1.0646,-1000.00,-999.51,-1000.00,-1000.00
1.0647,1.0647,-957.03,-965.33,-958.98,-949.71
1.0647,1.0647,-1000.00,-1000.00,-994.63,-1000.00
1.0647,1.0647,-1000.00,-1000.00,-997.07,-1000.00
1.0647,1.0647,-1000.00,-1000.00,-981.45,-1000.00
1.0647,1.0647,-1000.00,-1000.00,-1000.00,-1000.00
1.0647,1.0647,-1000.00,-1000.00,-801.27,-1000.00
1.1248,1.1248,-927.25,-937.50,-626.95,-927.25
1.1248,1.1248,-1000.00,-1000.00,-1000.00,-1000.00
1.1248,1.1248,-415.04,-217.77,-226.07,-412.60
1.1248,1.1248,968.75,-955.08,-948.73,970.21
1.1248,1.1248,990.23,957.52,958.98,990.72
1.1248,1.1248,929.69,946.29,945.80,930.66
1.1248,1.1248,985.35,980.47,973.14,985.84
1.1248,1.1248,973.14,973.63,966.31,973.63
1.1248,1.1248,973.14,973.63,960.94,973.63
1.1248,1.1248,979.98,986.33,-962.89,979.98
1.1248,1.1248,944.34,922.85,585.45,946.78
1.1248,1.1248,959.47,-983.89,678.71,956.05
1.1663,1.1663,-963.87,868.65,-957.52,-952.64
1.1663,1.1663,-232.91,-522.46,-362.79,-209.96
1.1663,1.1663,-1000.00,-1000.00,-1000.00,-1000.00
1.1663,1.1663,-937.01,-933.11,-944.34,-937.99
1.1663,1.1663,-1000.00,-1000.00,-983.40,-1000.00
1.1663,1.1663,-1000.00,-1000.00,-955.08,-1000.00
1.1663,1.1663,-1000.00,-1000.00,-994.63,-1000.00
1.1663,1.1663,-1000.00,-1000.00,-1000.00,-1000.00
1.1663,1.1663,-1000.00,-1000.00,-1000.00,-1000.00
1.1663,1.1663,-958.98,-927.25,-821.78,-958.98
1.1663,1.1663,-1000.00,-1000.00,-1000.00,-1000.00
1.1663,1.1663,-974.12,-414.55,-622.07,-974.61
1.2116,1.2116,373.54,969.24,835.45,374.02
1.2116,1.2116,-899.90,990.72,-975.59,-899.41
1.2116,1.2116,905.76,930.66,928.71,906.25
1.2116,1.2116,980.47,985.84,937.01,980.96
1.2116,1.2116,973.14,973.63,929.20,973.63
1.2116,1.2116,973.14,973.63,950.20,973.63
1.2116,1.2116,973.14,974.12,-983.40,974.12
1.2116,1.2116,973.63,972.66,820.31,974.61
1.2116,1.2116,910.16,913.09,534.18,910.64
1.2116,1.2116,-888.18,-889.65,-896.48,-887.21
1.2116,1.2116,190.92,158.20,198.24,191.41
1.2116,1.2116,-1000.00,-1000.00,-1000.00,-1000.00
1.2600,1.2600,-984.38,-979.49,-979.49,-983.89
1.2600,1.2600,-973.14,-975.59,-974.12,-973.14
1.2600,1.2600,-1000.00,-1000.00,-1000.00,-1000.00
1.2600,1.2600,-1000.00,-1000.00,-994.14,-1000.00
1.2600,1.2600,-1000.00,-1000.00,-1000.00,-1000.00
1.2600,1.2600,-1000.00,-1000.00,-1000.00,-1000.00
1.2600,1.2600,-1000.00,-969.73,-830.08,-1000.00
1.2600,1.2600,-1000.00,-992.68,-895.51,-1000.00
1.2600,1.2600,-937.50,-1000.00,-1000.00,-937.50
1.2600,1.2600,-1000.00,237.30,60.55,-1000.00
1.2600,1.2600,-218.26,-890.14,-908.20,-218.26
1.2600,1.2600,-955.57,909.67,926.27,-955.08
1.3045,1.3045,956.54,976.07,962.40,957.03
1.3045,1.3045,945.80,973.63,959.96,946.29
1.3045,1.3045,979.49,973.63,969.24,980.47
1.3045,1.3045,973.14,973.63,978.03,973.63
1.3045,1.3045,983.40,989.26,979.49,980.47
1.3045,1.3045,931.64,907.71,896.48,946.29
1.3045,1.3045,991.21,-937.50,-987.30,957.03
1.3045,1.3045,946.78,703.61,797.36,-955.08
1.3045,1.3045,-401.37,-745.12,-544.43,-218.26
1.3045,1.3045,-1000.00,-1000.00,-1000.00,-1000.00
1.3045,1.3045,-933.11,-936.52,-942.87,-937.50
1.3045,1.3045,-1000.00,-1000.00,-991.21,-1000.00
1.3501,1.3501,-1000.00,-1000.00,-997.07,-1000.00
1.3501,1.3501,-1000.00,-1000.00,-981.45,-1000.00
1.3501,1.3501,-1000.00,-1000.00,-1000.00,-1000.00
1.3501,1.3501,-1000.00,-1000.00,-804.20,-1000.00
1.3501,1.3501,-927.25,-937.50,-632.32,-927.73
1.3501,1.3501,-1000.00,-1000.00,-1000.00,-1000.00
1.3501,1.3501,-415.04,-218.26,-220.70,-402.83
1.3501,1.3501,968.26,-955.08,-946.78,974.61
1.3501,1.3501,990.23,957.52,957.52,988.77
1.3501,1.3501,929.69,946.29,946.29,931.64
1.3501,1.3501,985.35,980.47,980.47,985.84
1.3501,1.3501,972.66,973.63,969.73,973.63
1.3941,1.3941,972.66,973.63,961.43,973.63
1.3941,1.3941,981.93,987.30,-979.49,980.47
1.3941,1.3941,938.96,919.43,659.18,946.29
1.3941,1.3941,972.66,-973.14,765.14,957.52
1.3941,1.3941,998.54,834.96,-988.77,-955.08
1.3941,1.3941,-304.20,-574.71,-390.14,-217.77
1.3941,1.3941,-1000.00,-1000.00,-1000.00,-1000.00
1.3941,1.3941,-935.55,-933.11,-939.94,-937.50
1.3941,1.3941,-1000.00,-1000.00,-992.68,-1000.00
1.3941,1.3941,-1000.00,-1000.00,-978.03,-1000.00
1.3941,1.3941,-1000.00,-1000.00,-994.14,-1000.00
1.3941,1.3941,-1000.00,-1000.00,-1000.00,-1000.00
1.4519,1.4519,-1000.00,-1000.00,-999.02,-1000.00
1.4519,1.4519,-1000.00,-926.76,-809.08,-1000.00
1.4519,1.4519,-980.96,-1000.00,-1000.00,-980.47
1.4519,1.4519,-969.73,-440.43,-655.76,-970.21
1.4519,1.4519,-1000.00,956.05,805.18,-1000.00
1.4519,1.4519,88.87,996.09,-966.80,94.73
1.4519,1.4519,-895.51,928.22,918.95,-894.53
1.4519,1.4519,918.46,986.82,972.66,918.46
1.4519,1.4519,967.77,973.63,960.94,968.75
1.4519,1.4519,974.12,973.63,958.01,974.61
1.4519,1.4519,972.66,973.63,-987.79,973.63
1.4519,1.4519,986.33,974.61,890.14,989.75
1.4967,1.4967,897.95,910.64,649.41,898.93
1.4967,1.4967,-896.48,-887.21,-905.27,-906.74
1.4967,1.4967,477.05,191.41,396.97,569.82
1.4968,1.4968,-949.22,-1000.00,-998.54,-891.11
1.4968,1.4968,-1000.00,-984.38,-1000.00,-1000.00
1.4968,1.4968,-949.71,-973.14,-957.52,-942.38
1.4968,1.4968,-1000.00,-1000.00,-1000.00,-1000.00
1.4968,1.4968,-1000.00,-1000.00,-993.16,-1000.00
1.4968,1.4968,-1000.00,-1000.00,-1000.00,-1000.00
1.4968,1.4968,-1000.00,-1000.00,-1000.00,-1000.00
1.4968,1.4968,-1000.00,-970.21,-846.68,-1000.00
1.4968,1.4968,-1000.00,-991.21,-908.20,-1000.00
1.5418,1.5418,-937.50,-1000.00,-1000.00,-937.50
1.5418,1.5418,-1000.00,229.00,64.94,-1000.00
1.5418,1.5418,-218.26,-889.65,-906.25,-218.26
1.5418,1.5418,-955.57,909.67,924.80,-955.08
1.5418,1.5418,956.54,975.59,964.84,957.03
1.5418,1.5418,945.80,974.12,970.21,946.29
1.5418,1.5418,979.49,973.63,971.68,980.47
1.5418,1.5418,973.14,973.63,975.59,973.63
1.5418,1.5418,977.54,987.79,977.54,976.07
1.5418,1.5418,952.15,917.97,919.92,961.43
1.5418,1.5418,944.82,-970.21,991.21,929.69
1.5418,1.5418,-933.59,823.24,837.40,-908.20
1.5895,1.5895,-135.74,-589.84,-404.30,-13.67
1.5895,1.5895,-1000.00,-1000.00,-1000.00,-1000.00
1.5895,1.5895,-944.34,-933.11,-952.15,-956.54
1.5895,1.5895,-996.09,-1000.00,-980.96,-988.28
1.5895,1.5895,-1000.00,-1000.00,-997.07,-1000.00
1.5895,1.5895,-1000.00,-1000.00,-979.49,-1000.00
1.5895,1.5895,-1000.00,-1000.00,-1000.00,-1000.00
1.5895,1.5895,-1000.00,-1000.00,-775.39,-1000.00
1.5895,1.5895,-1000.00,-937.50,-591.31,-1000.00
1.5895,1.5895,-925.78,-1000.00,-1000.00,-925.78
1.5895,1.5895,-1000.00,-218.26,-225.10,-1000.00
1.5895,1.5895,-596.68,-955.08,-947.27,-575.20
1.6322,1.6322,863.28,957.52,958.01,877.44
1.6322,1.6322,-972.66,946.29,945.80,-976.56
1.6322,1.6322,915.04,980.47,980.47,917.48
1.6322,1.6322,989.26,973.63,970.21,989.75
1.6322,1.6322,973.14,973.63,968.26,973.63
1.6322,1.6322,973.14,974.61,-987.30,973.63
1.6322,1.6322,973.63,968.26,737.79,974.12
1.6322,1.6322,910.16,919.92,753.91,910.64
1.6322,1.6322,-888.18,-895.02,-911.62,-887.21
1.6322,1.6322,190.92,84.96,-15.63,191.41
1.6322,1.6322,-1000.00,-1000.00,-1000.00,-1000.00
1.6322,1.6322,-984.38,-968.75,-977.54,-983.89
1.6796,1.6796,-973.14,-981.45,-963.38,-973.14
1.6796,1.6796,-1000.00,-1000.00,-972.17,-1000.00
1.6796,1.6796,-1000.00,-1000.00,-995.12,-1000.00
1.6796,1.6796,-1000.00,-1000.00,-1000.00,-1000.00
1.6796,1.6796,-1000.00,-1000.00,-998.54,-1000.00
1.6796,1.6796,-973.14,-927.25,-808.11,-972.17
1.6796,1.6796,-984.38,-1000.00,-1000.00,-986.33
1.6796,1.6796,-1000.00,-414.55,-610.84,-1000.00
1.6796,1.6796,190.92,969.24,848.63,202.15
1.6796,1.6796,-888.18,990.72,-975.59,-888.18
1.6796,1.6796,910.16,930.66,922.85,910.16
1.6796,1.6796,973.63,985.84,958.01,974.61
1.7245,1.7245,973.14,973.63,958.98,973.63
1.7245,1.7245,973.14,973.63,949.71,973.63
1.7245,1.7245,973.14,974.12,-978.52,973.63
1.7245,1.7245,973.63,972.66,827.15,974.61
1.7245,1.7245,910.16,913.09,547.36,910.64
1.7245,1.7245,-888.18,-889.16,-895.02,-887.70
1.7245,1.7245,190.92,164.55,199.71,191.41
1.7246,1.7246,-1000.00,-1000.00,-1000.00,-1000.00
1.7246,1.7246,-984.38,-980.47,-979.98,-984.38
1.7246,1.7246,-973.14,-975.10,-974.12,-973.14
1.7246,1.7246,-1000.00,-1000.00,-1000.00,-1000.00
1.7246,1.7246,-1000.00,-1000.00,-993.16,-1000.00
1.7695,1.7695,-1000.00,-1000.00,-1000.00,-1000.00
1.7695,1.7695,-1000.00,-1000.00,-1000.00,-1000.00
1.7695,1.7695,-1000.00,-958.98,-820.31,-1000.00
1.7695,1.7695,-1000.00,-1000.00,-899.41,-1000.00
1.7695,1.7695,-937.50,-974.12,-1000.00,-937.50
1.7695,1.7695,-1000.00,374.51,95.70,-1000.00
1.7695,1.7695,-218.26,-898.93,-905.27,-218.26
1.7695,1.7695,-955.57,906.25,923.34,-955.08
1.7695,1.7695,956.54,980.96,965.33,957.03
1.7695,1.7695,945.80,973.63,963.38,946.29
1.7695,1.7695,979.98,973.63,970.70,980.47
1.7695,1.7695,973.14,973.63,977.54,973.63
1.8267,1.8267,988.77,989.26,982.42,987.30
1.8267,1.8267,907.23,898.93,883.30,919.43
1.8267,1.8267,-940.43,-905.76,-937.50,-973.14
1.8267,1.8267,710.94,562.01,613.28,834.96
1.8267,1.8267,-736.33,-896.00,-791.99,-574.71
1.8267,1.8267,-1000.00,-1000.00,-1000.00,-1000.00
1.8267,1.8267,-936.04,-943.36,-945.80,-933.11
1.8267,1.8267,-1000.00,-1000.00,-992.68,-1000.00
1.8267,1.8267,-1000.00,-1000.00,-995.61,-1000.00
1.8267,1.8267,-1000.00,-1000.00,-981.45,-1000.00
1.8268,1.8268,-1000.00,-1000.00,-1000.00,-1000.00
1.8268,1.8268,-1000.00,-1000.00,-788.09,-1000.00
1.8746,1.8746,-927.25,-937.50,-613.77,-927.73
1.8746,1.8746,-1000.00,-1000.00,-1000.00,-1000.00
1.8747,1.8747,-415.04,-218.26,-218.75,-405.76
1.8747,1.8747,968.75,-955.08,-946.29,973.14
1.8747,1.8747,990.23,957.52,957.03,989.26
1.8747,1.8747,930.18,946.29,946.29,931.15
1.8747,1.8747,985.35,980.47,980.47,985.84
1.8747,1.8747,973.14,973.63,968.26,973.63
1.8747,1.8747,973.14,973.63,964.84,973.63
1.8747,1.8747,982.42,987.30,-974.12,980.47
1.8747,1.8747,937.01,919.43,625.49,946.29
1.8747,1.8747,977.54,-973.14,748.54,957.03
1.9199,1.9199,984.86,834.47,-990.72,-955.08
1.9199,1.9199,-329.59,-575.20,-405.27,-218.26
1.9199,1.9199,-1000.00,-1000.00,-1000.00,-1000.00
1.9199,1.9199,-935.06,-933.11,-943.36,-937.50
1.9200,1.9200,-1000.00,-1000.00,-984.86,-1000.00
1.9200,1.9200,-1000.00,-1000.00,-958.01,-1000.00
1.9200,1.9200,-1000.00,-1000.00,-993.65,-1000.00
1.9200,1.9200,-1000.00,-1000.00,-1000.00,-1000.00
1.9200,1.9200,-1000.00,-1000.00,-996.09,-1000.00
1.9200,1.9200,-1000.00,-927.25,-794.92,-1000.00
1.9200,1.9200,-980.96,-1000.00,-1000.00,-980.47
1.9200,1.9200,-969.73,-414.55,-618.65,-970.70
1.9647,1.9647,-1000.00,969.24,841.31,-1000.00
1.9647,1.9647,89.36,991.21,-975.10,97.66
1.9647,1.9647,-895.51,930.66,921.88,-894.04
1.9647,1.9647,918.46,985.84,968.26,918.46
1.9647,1.9647,967.77,973.63,958.01,968.75
1.9648,1.9648,973.63,973.63,957.03,974.61
1.9648,1.9648,973.14,974.12,-981.93,973.63
1.9648,1.9648,977.54,974.12,863.77,983.40
1.9648,1.9648,905.27,910.64,625.98,900.88
1.9648,1.9648,-886.72,-887.21,-893.07,-888.67
1.9648,1.9648,270.02,191.41,253.91,376.46
1.9648,1.9648,-1000.00,-1000.00,-1000.00,-1000.00
2.0091,2.0091,-997.07,-983.89,-990.72,-1000.00
2.0091,2.0091,-966.80,-973.14,-969.24,-958.01
2.0091,2.0091,-1000.00,-1000.00,-1000.00,-1000.00
2.0091,2.0091,-1000.00,-1000.00,-993.65,-1000.00
2.0091,2.0091,-1000.00,-1000.00,-1000.00,-1000.00
2.0091,2.0091,-1000.00,-1000.00,-1000.00,-1000.00
2.0091,2.0091,-1000.00,-958.98,-847.66,-1000.00
2.0091,2.0091,-937.50,-1000.00,-915.04,-937.50
2.0091,2.0091,-1000.00,-974.12,-1000.00,-1000.00
2.0092,2.0092,-218.26,374.51,97.66,-218.26
2.0092,2.0092,-955.57,-899.41,-906.25,-954.59
2.0092,2.0092,956.54,906.74,926.27,957.52
2.0561,2.0561,945.80,980.96,960.94,946.29
2.0561,2.0561,979.49,973.63,938.48,980.47
2.0561,2.0561,973.14,973.63,964.84,973.63
2.0561,2.0561,973.14,973.63,982.91,973.63
2.0561,2.0561,983.40,978.52,974.12,986.82
2.0561,2.0561,899.90,905.76,844.73,898.93
2.0561,2.0561,-889.65,-885.74,-903.32,-895.02
2.0561,2.0561,387.21,268.55,370.61,471.68
2.0561,2.0561,-996.09,-1000.00,-1000.00,-952.15
2.0561,2.0561,-1000.00,-996.58,-1000.00,-1000.00
2.0561,2.0561,-957.03,-966.80,-960.45,-950.20
2.0561,2.0561,-1000.00,-1000.00,-990.23,-1000.00
2.0973,2.0973,-1000.00,-1000.00,-994.14,-1000.00
2.0974,2.0974,-1000.00,-1000.00,-983.40,-1000.00
2.0974,2.0974,-1000.00,-1000.00,-1000.00,-1000.00
2.0974,2.0974,-1000.00,-1000.00,-787.11,-1000.00
2.0974,2.0974,-1000.00,-937.50,-636.23,-1000.00
2.0974,2.0974,-925.29,-1000.00,-1000.00,-925.29
2.0974,2.0974,-1000.00,-217.77,-216.31,-1000.00
2.0974,2.0974,-508.30,-954.59,-948.24,-508.30
2.0974,2.0974,919.92,957.52,957.52,920.41
2.0974,2.0974,-991.21,946.29,946.29,-990.72
2.0974,2.0974,922.36,980.47,980.47,922.85
2.0974,2.0974,987.79,974.12,969.73,988.28
2.1446,2.1446,972.66,973.63,970.70,973.63
2.1446,2.1446,973.63,976.56,-993.65,973.63
2.1446,2.1446,967.77,958.01,752.93,974.12
2.1446,2.1446,918.46,936.04,788.57,910.64
2.1446,2.1446,-895.02,-917.48,-919.92,-887.21
2.1446,2.1446,91.31,-62.01,-69.82,191.41
2.1446,2.1446,-1000.00,-1000.00,-1000.00,-1000.00
2.1446,2.1446,-969.73,-951.66,-971.19,-983.89
2.1446,2.1446,-980.96,-991.70,-963.87,-973.14
2.1446,2.1446,-1000.00,-1000.00,-965.82,-1000.00
2.1446,2.1446,-1000.00,-1000.00,-994.14,-1000.00
2.1446,2.1446,-1000.00,-1000.00,-1000.00,-1000.00
2.2049,2.2049,-1000.00,-1000.00,-994.63,-1000.00
2.2049,2.2049,-958.98,-927.25,-782.71,-958.50
2.2049,2.2049,-1000.00,-1000.00,-1000.00,-1000.00
2.2049,2.2049,-974.12,-414.55,-602.05,-970.70
2.2049,2.2049,374.02,969.24,859.86,379.88
2.2049,2.2049,-899.90,991.21,-980.47,-899.90
2.2049,2.2049,905.76,930.66,928.22,906.74
2.2049,2.2049,980.47,986.33,944.34,981.45
2.2049,2.2049,973.14,973.63,933.59,973.63
2.2049,2.2049,973.14,973.63,956.05,973.63
2.2049,2.2049,973.14,974.61,-969.73,974.12
2.2049,2.2049,973.63,967.77,824.71,974.61
2.2497,2.2497,910.16,919.92,551.27,910.64
2.2497,2.2497,-888.18,-896.00,-896.97,-887.21
2.2497,2.2497,190.92,81.54,169.43,191.41
2.2497,2.2497,-1000.00,-1000.00,-1000.00,-1000.00
2.2497,2.2497,-983.89,-968.26,-976.56,-983.89
2.2497,2.2497,-973.14,-981.45,-975.59,-973.14
2.2497,2.2497,-1000.00,-1000.00,-998.54,-1000.00
2.2497,2.2497,-1000.00,-1000.00,-992.19,-1000.00
2.2497,2.2497,-1000.00,-1000.00,-1000.00,-1000.00
2.2497,2.2497,-1000.00,-1000.00,-1000.00,-1000.00
2.2497,2.2497,-1000.00,-958.98,-847.17,-1000.00
2.2497,2.2497,-937.50,-1000.00,-918.46,-938.48
2.2939,2.2939,-1000.00,-974.12,-1000.00,-1000.00
2.2939,2.2939,-218.26,374.51,116.21,-206.05
2.2940,2.2940,-955.57,-899.41,-903.81,-951.66
2.2940,2.2940,956.54,906.25,923.83,955.57
2.2940,2.2940,945.80,980.96,962.89,947.27
2.2940,2.2940,979.98,973.63,944.82,979.98
2.2940,2.2940,973.14,973.63,967.77,973.63
2.2940,2.2940,973.14,974.12,979.49,973.63
2.2940,2.2940,982.91,977.05,976.56,984.38
2.2940,2.2940,900.39,907.71,873.54,899.90
2.2940,2.2940,-889.16,-886.23,-896.00,-890.14
2.2940,2.2940,376.95,237.79,339.84,406.25
2.3365,2.3365,-1000.00,-1000.00,-1000.00,-986.33
2.3365,2.3365,-1000.00,-991.70,-1000.00,-1000.00
2.3365,2.3365,-958.01,-969.24,-962.40,-955.57
2.3365,2.3365,-1000.00,-1000.00,-985.84,-1000.00
2.3365,2.3365,-1000.00,-1000.00,-993.65,-1000.00
2.3365,2.3365,-1000.00,-1000.00,-981.93,-1000.00
2.3365,2.3365,-1000.00,-1000.00,-1000.00,-1000.00
2.3365,2.3365,-1000.00,-1000.00,-772.95,-1000.00
2.3365,2.3365,-1000.00,-937.50,-615.72,-1000.00
2.3365,2.3365,-925.29,-1000.00,-1000.00,-925.29
2.3365,2.3365,-1000.00,-218.26,-215.82,-1000.00
2.3365,2.3365,-508.30,-954.59,-947.27,-508.30
2.3817,2.3817,919.92,957.03,957.03,920.41
2.3817,2.3817,-991.21,946.29,946.29,-990.72
2.3817,2.3817,922.36,980.47,980.47,922.85
2.3817,2.3817,987.30,973.63,968.75,988.28
2.3817,2.3817,972.66,973.63,971.68,973.63
2.3817,2.3817,978.03,984.38,-988.77,977.54
2.3817,2.3817,951.66,932.13,715.82,955.08
2.3817,2.3817,945.31,991.70,806.15,940.92
2.3817,2.3817,-935.06,947.27,-964.84,-925.78
2.3817,2.3817,-140.63,-400.88,-297.36,-103.52
2.3817,2.3817,-1000.00,-1000.00,-1000.00,-1000.00
2.3817,2.3817,-943.85,-933.11,-950.20,-947.27
2.4301,2.4301,-996.58,-1000.00,-971.19,-994.14
2.4301,2.4301,-1000.00,-1000.00,-951.66,-1000.00
2.4301,2.4301,-1000.00,-1000.00,-995.12,-1000.00
2.4302,2.4302,-1000.00,-1000.00,-1000.00,-1000.00
2.4302,2.4302,-1000.00,-1000.00,-993.65,-1000.00
2.4302,2.4302,-946.29,-927.73,-777.34,-944.82
2.4302,2.4302,-1000.00,-1000.00,-1000.00,-1000.00
2.4302,2.4302,-861.82,-401.86,-558.11,-849.12
2.4302,2.4302,547.36,974.61,898.93,564.45
2.4302,2.4302,-919.43,988.77,-988.28,-920.90
2.4302,2.4302,905.76,931.64,928.22,906.25
2.4302,2.4302,984.86,985.84,953.61,986.33
2.4749,2.4749,973.14,973.63,948.73,973.63
2.4749,2.4749,973.14,973.63,949.22,973.63
2.4749,2.4749,973.14,974.61,-969.24,973.63
2.4749,2.4749,973.63,968.26,804.20,974.12
2.4749,2.4749,910.16,919.43,523.93,910.64
2.4749,2.4749,-888.18,-894.53,-890.63,-887.70
2.4749,2.4749,190.92,89.36,182.62,191.41
2.4749,2.4749,-1000.00,-1000.00,-1000.00,-1000.00
2.4749,2.4749,-984.38,-969.73,-978.52,-983.89
2.4749,2.4749,-973.14,-980.96,-974.61,-973.14
2.4749,2.4749,-1000.00,-1000.00,-1000.00,-1000.00
2.4749,2.4749,-1000.00,-1000.00,-992.68,-1000.00
2.5191,2.5191,-1000.00,-1000.00,-1000.00,-1000.00
2.5191,2.5191,-1000.00,-1000.00,-1000.00,-1000.00
2.5191,2.5191,-1000.00,-958.98,-845.21,-1000.00
2.5191,2.5191,-1000.00,-1000.00,-920.41,-1000.00
2.5191,2.5191,-937.50,-974.12,-1000.00,-937.50
2.5191,2.5191,-1000.00,374.51,126.95,-1000.00
2.5191,2.5191,-218.26,-898.93,-903.81,-218.26
2.5191,2.5191,-955.57,906.74,920.90,-955.08
2.5191,2.5191,956.54,980.96,967.29,957.52
2.5191,2.5191,945.80,973.63,965.33,946.29
2.5191,2.5191,979.98,973.63,970.70,980.47
2.5191,2.5191,973.14,974.12,977.54,973.63
2.5643,2.5643,983.89,989.26,978.52,978.52
2.5643,2.5643,931.64,907.23,900.39,952.64
2.5643,2.5643,991.21,-936.04,-990.23,945.80
2.5643,2.5643,946.78,697.27,781.74,-934.08
2.5643,2.5643,-401.37,-751.95,-532.23,-138.67
2.5643,2.5643,-1000.00,-1000.00,-1000.00,-1000.00
2.5643,2.5643,-933.11,-936.52,-945.80,-944.34
2.5643,2.5643,-1000.00,-1000.00,-986.33,-996.58
2.5643,2.5643,-1000.00,-1000.00,-995.12,-1000.00
2.5643,2.5643,-1000.00,-1000.00,-983.89,-1000.00
2.5643,2.5643,-1000.00,-1000.00,-1000.00,-1000.00
2.5643,2.5643,-1000.00,-1000.00,-785.64,-1000.00
2.6217,2.6217,-1000.00,-937.50,-643.55,-1000.00
2.6217,2.6217,-925.29,-1000.00,-1000.00,-925.29
2.6217,2.6217,-1000.00,-217.77,-214.36,-1000.00
2.6217,2.6217,-508.30,-955.08,-948.24,-508.30
2.6217,2.6217,919.92,957.03,957.03,920.41
2.6217,2.6217,-991.21,946.29,946.29,-990.72
2.6217,2.6217,922.36,980.47,980.47,922.85
2.6217,2.6217,987.30,973.63,968.26,988.28
2.6217,2.6217,972.66,973.63,973.63,973.63
2.6217,2.6217,973.14,976.07,-999.02,973.63
2.6217,2.6217,973.63,961.43,751.95,974.12
2.6217,2.6217,910.16,930.18,801.27,910.64
2.6670,2.6670,-888.18,-908.69,-919.43,-887.21
2.6670,2.6670,190.92,-16.60,-31.25,191.41
2.6670,2.6670,-1000.00,-1000.00,-1000.00,-1000.00
2.6670,2.6670,-984.38,-956.54,-978.52,-984.38
2.6670,2.6670,-973.14,-988.77,-957.52,-973.14
2.6670,2.6670,-1000.00,-1000.00,-959.47,-1000.00
2.6670,2.6670,-1000.00,-1000.00,-994.63,-1000.00
2.6670,2.6670,-1000.00,-1000.00,-1000.00,-1000.00
2.6670,2.6670,-1000.00,-1000.00,-994.63,-1000.00
2.6670,2.6670,-1000.00,-928.22,-789.55,-1000.00
2.6670,2.6670,-980.96,-1000.00,-1000.00,-979.00
2.6670,2.6670,-969.73,-395.02,-576.66,-973.63
2.7148,2.7148,-1000.00,978.03,878.91,-1000.00
2.7148,2.7148,88.87,987.30,-982.91,117.68
2.7148,2.7148,-895.51,932.13,922.85,-893.07
2.7149,2.7149,918.46,985.35,972.17,916.99
2.7149,2.7149,967.77,973.63,965.33,969.73
2.7149,2.7149,974.12,973.63,953.61,974.61
2.7149,2.7149,973.14,974.12,-973.14,973.63
2.7149,2.7149,974.61,974.12,831.05,980.96
2.7149,2.7149,909.18,910.64,590.82,903.32
2.7149,2.7149,-887.70,-887.21,-885.74,-886.72
2.7149,2.7149,203.61,190.92,222.17,321.78
2.7149,2.7149,-1000.00,-1000.00,-1000.00,-1000.00
2.7589,2.7589,-986.33,-983.89,-986.82,-1000.00
2.7589,2.7589,-972.17,-973.14,-971.19,-962.40
2.7589,2.7589,-1000.00,-1000.00,-998.54,-1000.00
2.7589,2.7589,-1000.00,-1000.00,-992.19,-1000.00
2.7589,2.7589,-1000.00,-1000.00,-1000.00,-1000.00
2.7589,2.7589,-1000.00,-1000.00,-1000.00,-1000.00
2.7589,2.7589,-998.54,-958.98,-849.12,-998.05
2.7589,2.7589,-940.92,-1000.00,-929.69,-941.89
2.7589,2.7589,-1000.00,-974.12,-1000.00,-1000.00
2.7589,2.7589,-177.25,374.02,166.50,-166.99
2.7589,2.7589,-944.82,-899.41,-901.86,-941.41
2.7589,2.7589,950.68,906.74,920.41,950.20
2.8046,2.8046,948.73,980.96,965.33,950.20
2.8046,2.8046,979.00,973.63,944.82,979.00
2.8046,2.8046,973.14,973.63,966.31,973.63
2.8046,2.8046,972.66,974.12,981.45,973.63
2.8046,2.8046,982.91,974.61,974.12,984.38
2.8046,2.8046,900.39,910.64,852.05,900.39
2.8046,2.8046,-889.16,-887.21,-899.90,-889.65
2.8046,2.8046,375.00,191.41,335.94,398.93
2.8046,2.8046,-1000.00,-1000.00,-1000.00,-990.23
2.8046,2.8046,-1000.00,-984.38,-1000.00,-1000.00
2.8046,2.8046,-958.50,-973.14,-962.40,-956.54
2.8046,2.8046,-1000.00,-1000.00,-989.75,-1000.00
2.8489,2.8489,-1000.00,-1000.00,-995.12,-1000.00
2.8489,2.8489,-1000.00,-1000.00,-982.42,-1000.00
2.8489,2.8489,-1000.00,-1000.00,-1000.00,-1000.00
2.8489,2.8489,-1000.00,-1000.00,-752.44,-1000.00
2.8489,2.8489,-927.25,-937.50,-609.38,-927.73
2.8489,2.8489,-1000.00,-1000.00,-1000.00,-1000.00
2.8489,2.8489,-415.04,-218.26,-212.89,-404.30
2.8489,2.8489,968.75,-955.08,-948.24,973.63
2.8489,2.8489,990.23,957.52,957.03,988.77
2.8489,2.8489,929.69,946.29,946.29,931.15
2.8489,2.8489,985.35,980.47,980.47,985.35
2.8489,2.8489,973.14,973.63,968.75,973.63
2.8924,2.8924,973.14,973.63,971.19,973.63
2.8924,2.8924,983.89,988.28,-983.89,983.40
2.8924,2.8924,930.18,914.06,691.41,936.04
2.8924,2.8924,994.63,-958.50,840.82,982.42
2.8924,2.8924,935.06,780.27,922.36,972.66
2.8924,2.8924,-419.43,-646.00,-515.14,-353.52
2.8924,2.8924,-1000.00,-1000.00,-1000.00,-1000.00
2.8924,2.8924,-933.11,-934.57,-944.82,-934.57
2.8924,2.8924,-1000.00,-1000.00,-976.56,-1000.00
2.8924,2.8924,-1000.00,-1000.00,-950.20,-1000.00
2.8924,2.8924,-1000.00,-1000.00,-993.16,-1000.00
2.8924,2.8924,-1000.00,-1000.00,-1000.00,-1000.00
2.9387,2.9387,-1000.00,-1000.00,-982.42,-1000.00
2.9387,2.9387,-958.98,-927.25,-739.26,-958.50
2.9387,2.9387,-1000.00,-1000.00,-1000.00,-1000.00
2.9387,2.9387,-974.12,-414.55,-604.98,-971.68
2.9387,2.9387,374.02,969.24,863.28,378.42
2.9387,2.9387,-899.90,991.21,-980.96,-899.90
2.9387,2.9387,905.76,930.66,928.22,906.74
2.9387,2.9387,980.47,986.33,945.80,980.96
2.9387,2.9387,972.66,973.63,932.62,973.63
2.9388,2.9388,972.66,973.63,959.47,973.63
2.9388,2.9388,973.14,974.61,-979.49,973.63
2.9388,2.9388,973.63,968.26,856.93,974.61
2.9996,2.9996,910.16,918.95,605.96,910.64
2.9996,2.9996,-888.18,-894.53,-905.76,-887.70
2.9996,2.9996,190.92,89.36,152.34,191.41
2.9996,2.9996,-1000.00,-1000.00,-1000.00,-1000.00
2.9996,2.9996,-983.89,-969.24,-976.56,-983.89
2.9997,2.9997,-973.14,-980.96,-975.10,-973.14
2.9997,2.9997,-1000.00,-1000.00,-978.03,-1000.00
2.9997,2.9997,-1000.00,-1000.00,-988.77,-1000.00
2.9997,2.9997,-1000.00,-1000.00,-1000.00,-1000.00
2.9997,2.9997,-1000.00,-1000.00,-1000.00,-1000.00
2.9997,2.9997,-1000.00,-969.24,-883.79,-1000.00
2.9997,2.9997,-937.50,-994.14,-930.18,-937.99
3.0417,3.0417,-1000.00,-1000.00,-1000.00,-1000.00
3.0417,3.0417,-218.26,244.63,75.20,-213.38
3.0417,3.0417,-955.57,-890.63,-902.83,-954.10
3.0417,3.0417,956.54,909.67,922.85,956.54
3.0417,3.0417,945.80,976.56,965.33,946.78
3.0417,3.0417,989.26,986.82,989.75,987.79
3.0417,3.0417,937.01,928.22,921.39,944.34
3.0417,3.0417,974.12,997.07,969.73,961.43
3.0417,3.0417,-993.16,953.13,977.54,-963.38
3.0417,3.0417,-326.17,-445.80,-383.30,-242.68
3.0417,3.0417,-1000.00,-1000.00,-1000.00,-1000.00
3.0417,3.0417,-931.15,-926.76,-937.01,-936.04
3.1047,3.1047,-1000.00,-1000.00,-990.23,-1000.00
3.1047,3.1047,-1000.00,-1000.00,-973.63,-1000.00
3.1047,3.1047,-1000.00,-1000.00,-971.68,-1000.00
3.1047,3.1047,-1000.00,-1000.00,-1000.00,-1000.00
3.1047,3.1047,-1000.00,-1000.00,-963.87,-1000.00
3.1047,3.1047,-949.71,-942.38,-381.35,-949.22
3.1047,3.1047,-1000.00,-1000.00,-893.55,-1000.00
3.1047,3.1047,-947.27,-891.11,-969.24,-942.87
3.1047,3.1047,480.47,569.82,610.35,487.79
3.1047,3.1047,-896.97,-906.74,-916.99,-896.97
3.1047,3.1047,897.95,898.93,898.93,898.44
3.1047,3.1047,986.82,989.75,989.75,987.30
3.1495,3.1495,973.14,973.63,978.03,973.63
3.1495,3.1495,972.66,973.63,958.01,973.63
3.1495,3.1495,973.14,975.59,-994.14,973.63
3.1495,3.1495,986.82,970.70,914.06,989.75
3.1495,3.1495,900.39,920.41,702.15,898.93
3.1495,3.1495,-906.74,-910.64,-919.92,-906.74
3.1495,3.1495,517.58,173.34,427.25,569.82
3.1495,3.1495,-913.57,-1000.00,-957.03,-891.11
3.1495,3.1495,-1000.00,-988.77,-1000.00,-1000.00
3.1495,3.1495,-946.78,-973.14,-956.05,-942.38
3.1495,3.1495,-1000.00,-1000.00,-911.13,-1000.00
3.1495,3.1495,-1000.00,-1000.00,-956.05,-1000.00
3.1950,3.1950,-1000.00,-1000.00,-1000.00,-1000.00
3.1950,3.1950,-1000.00,-1000.00,-1000.00,-1000.00
3.1950,3.1950,-973.14,-944.34,-837.89,-973.14
3.1950,3.1950,-984.38,-1000.00,-892.09,-984.38
3.1950,3.1950,-1000.00,-906.25,-1000.00,-1000.00
3.1950,3.1950,190.92,545.90,414.55,192.38
3.1950,3.1950,-888.18,-903.81,-891.11,-887.21
3.1950,3.1950,909.67,898.93,901.37,910.64
3.1950,3.1950,973.63,988.77,982.91,974.12
3.1950,3.1950,973.14,973.63,973.14,973.63
3.1950,3.1950,972.66,973.63,952.64,973.63
3.1950,3.1950,973.14,973.63,999.51,973.63
3.2374,3.2374,989.26,990.23,972.66,990.23
3.2374,3.2374,915.04,915.53,494.14,915.53
3.2374,3.2374,-973.14,-972.66,875.00,-972.17
3.2374,3.2374,863.77,864.26,930.18,864.26
3.2374,3.2374,-596.68,-596.19,-627.93,-596.68
3.2374,3.2374,-1000.00,-1000.00,-1000.00,-1000.00
3.2374,3.2374,-925.78,-925.78,-925.78,-925.78
3.2374,3.2374,-1000.00,-1000.00,-1000.00,-1000.00
3.2374,3.2374,-1000.00,-1000.00,-1000.00,-1000.00
3.2374,3.2374,-1000.00,-1000.00,-985.84,-1000.00
3.2374,3.2374,-1000.00,-1000.00,-1000.00,-1000.00
3.2374,3.2374,-1000.00,-1000.00,-926.27,-1000.00
3.2844,3.2844,-936.52,-939.45,-751.46,-936.04
3.2845,3.2845,-1000.00,-1000.00,-1000.00,-1000.00
3.2845,3.2845,-827.64,-318.85,-565.43,-822.27
3.2845,3.2845,651.86,978.03,871.58,658.69
3.2845,3.2845,-921.39,980.47,-978.03,-921.88
3.2845,3.2845,900.39,937.50,924.32,900.88
3.2845,3.2845,990.23,983.89,960.94,991.21
3.2845,3.2845,972.66,973.63,949.22,973.63
3.2845,3.2845,972.66,973.63,977.05,973.63
3.2845,3.2845,989.26,989.75,995.61,988.28
3.2845,3.2845,915.04,916.02,891.11,922.85
3.2845,3.2845,-973.14,-972.17,983.40,-990.72
3.3274,3.3274,863.28,864.26,888.67,920.41
3.3274,3.3274,-596.68,-596.68,-568.36,-508.30
3.3274,3.3274,-1000.00,-1000.00,-1000.00,-1000.00
3.3274,3.3274,-925.78,-925.78,-936.04,-925.29
3.3274,3.3274,-1000.00,-1000.00,-985.35,-1000.00
3.3274,3.3274,-1000.00,-1000.00,-956.05,-1000.00
3.3274,3.3274,-1000.00,-1000.00,-973.14,-1000.00
3.3274,3.3274,-1000.00,-1000.00,-1000.00,-1000.00
3.3274,3.3274,-1000.00,-1000.00,-899.41,-1000.00
3.3274,3.3274,-949.71,-942.38,-403.81,-949.71
3.3274,3.3274,-1000.00,-1000.00,-954.59,-1000.00
3.3274,3.3274,-947.27,-891.11,-956.05,-947.27
3.3749,3.3749,480.96,569.82,596.68,481.45
3.3749,3.3749,-896.48,-906.74,-913.09,-896.00
3.3749,3.3749,897.95,898.93,898.93,898.44
3.3749,3.3749,986.82,989.75,989.26,987.30
3.3749,3.3749,973.14,973.63,974.12,973.63
3.3749,3.3749,972.66,974.12,971.68,973.63
3.3749,3.3749,973.14,974.61,977.54,973.63
3.3749,3.3749,973.14,979.98,966.31,973.63
3.3749,3.3749,985.35,908.20,953.61,983.40
3.3749,3.3749,929.69,-903.81,934.57,937.99
3.3749,3.3749,990.23,358.40,960.94,974.12
3.3749,3.3749,968.75,-981.45,935.06,-990.23
3.4199,3.4199,-415.04,-1000.00,-419.43,-321.29
3.4199,3.4199,-1000.00,-958.98,-1000.00,-1000.00
3.4200,3.4200,-927.25,-1000.00,-793.95,-931.15
3.4200,3.4200,-1000.00,-1000.00,-967.77,-1000.00
3.4200,3.4200,-1000.00,-1000.00,-1000.00,-1000.00
3.4200,3.4200,-1000.00,-1000.00,-1000.00,-1000.00
3.4200,3.4200,-1000.00,-965.33,-641.60,-1000.00
3.4200,3.4200,-1000.00,-1000.00,-692.87,-1000.00
3.4200,3.4200,-927.73,-1000.00,-1000.00,-927.73
3.4200,3.4200,-1000.00,291.02,105.96,-1000.00
3.4200,3.4200,-679.69,-885.25,-916.50,-679.69
3.4200,3.4200,799.80,904.30,925.29,800.29
3.4647,3.4647,-955.08,979.49,966.31,-954.10
3.4648,3.4648,908.69,973.63,976.56,909.67
3.4648,3.4648,990.72,973.63,972.17,991.21
3.4648,3.4648,972.66,973.63,975.59,973.63
3.4648,3.4648,989.26,990.72,990.23,990.23
3.4648,3.4648,915.04,912.60,875.98,916.02
3.4648,3.4648,-973.14,-961.91,-988.28,-972.17
3.4648,3.4648,863.28,829.10,868.16,863.77
3.4648,3.4648,-596.68,-642.58,-603.03,-596.68
3.4648,3.4648,-1000.00,-1000.00,-1000.00,-1000.00
3.4648,3.4648,-925.78,-926.76,-926.76,-925.78
3.4648,3.4648,-1000.00,-1000.00,-1000.00,-1000.00
3.5217,3.5217,-1000.00,-1000.00,-999.51,-1000.00
3.5217,3.5217,-1000.00,-1000.00,-987.30,-1000.00
3.5218,3.5218,-1000.00,-1000.00,-1000.00,-1000.00
3.5218,3.5218,-1000.00,-1000.00,-928.22,-1000.00
3.5218,3.5218,-1000.00,-933.11,-763.67,-1000.00
3.5218,3.5218,-942.38,-1000.00,-1000.00,-942.38
3.5218,3.5218,-1000.00,-417.97,-670.41,-1000.00
3.5218,3.5218,-891.11,942.38,803.71,-891.11
3.5218,3.5218,568.85,996.58,-956.54,569.82
3.5218,3.5218,-907.71,929.69,913.57,-906.74
3.5218,3.5218,897.95,985.84,979.49,898.93
3.5218,3.5218,989.26,973.63,962.89,989.75
3.5692,3.5692,972.66,973.63,973.14,973.63
3.5692,3.5692,988.28,990.23,997.07,988.28
3.5692,3.5692,917.97,915.53,893.07,922.85
3.5692,3.5692,-980.96,-972.17,979.98,-990.72
3.5692,3.5692,887.70,864.26,896.48,920.41
3.5692,3.5692,-558.59,-596.68,-554.69,-507.81
3.5692,3.5692,-1000.00,-1000.00,-1000.00,-1000.00
3.5692,3.5692,-925.29,-925.78,-926.76,-925.29
3.5692,3.5692,-1000.00,-1000.00,-1000.00,-1000.00
3.5692,3.5692,-1000.00,-992.19,-1000.00,-1000.00
3.5692,3.5692,-965.33,-954.59,-951.66,-965.33
3.5692,3.5692,-1000.00,-1000.00,-1000.00,-1000.00
3.6121,3.6121,-1000.00,-112.30,-949.22,-1000.00
3.6121,3.6121,290.53,-957.03,464.36,291.02
3.6121,3.6121,-886.23,949.71,-881.84,-885.25
3.6121,3.6121,903.81,952.64,841.80,904.30
3.6121,3.6121,995.61,995.61,941.41,995.61
3.6121,3.6121,915.04,916.02,913.09,915.53
3.6121,3.6121,-973.14,-972.17,-986.33,-972.66
3.6122,3.6122,863.77,864.26,840.82,864.26
3.6122,3.6122,-596.68,-596.19,-627.44,-596.68
3.6122,3.6122,-1000.00,-1000.00,-1000.00,-1000.00
3.6122,3.6122,-925.78,-925.78,-926.76,-925.78
3.6122,3.6122,-1000.00,-1000.00,-1000.00,-1000.00
3.6573,3.6573,-1000.00,-1000.00,-1000.00,-1000.00
3.6573,3.6573,-1000.00,-1000.00,-998.05,-1000.00
3.6573,3.6573,-1000.00,-927.73,-989.26,-1000.00
3.6573,3.6573,-986.33,-1000.00,-991.70,-984.38
3.6573,3.6573,-963.38,-679.69,-923.34,-965.82
3.6573,3.6573,-1000.00,800.78,-907.71,-1000.00
3.6573,3.6573,-10.74,-953.61,264.16,15.14
3.6573,3.6573,-929.69,909.67,-884.77,-923.34
3.6573,3.6573,934.57,991.21,884.28,932.13
3.6573,3.6573,959.47,973.63,972.66,962.40
3.6574,3.6574,976.56,973.63,894.04,977.05
3.6574,3.6574,973.14,973.63,-964.84,973.63
3.7021,3.7021,973.14,973.63,750.49,973.63
3.7021,3.7021,973.14,973.63,277.83,973.63
3.7021,3.7021,988.77,989.75,731.93,989.26
3.7021,3.7021,897.95,898.93,485.35,898.44
3.7021,3.7021,-907.71,-909.67,978.03,-906.74
3.7021,3.7021,568.85,585.94,265.14,569.82
3.7021,3.7021,-891.11,-885.25,-1000.00,-891.11
3.7021,3.7021,-1000.00,-1000.00,-986.82,-1000.00
3.7021,3.7021,-942.38,-969.73,-950.20,-942.38
3.7021,3.7021,-1000.00,-1000.00,-1000.00,-1000.00
3.7021,3.7021,-1000.00,173.83,-424.80,-1000.00
3.7021,3.7021,-1000.00,-290.04,-478.03,-1000.00
3.7487,3.7487,-928.71,-1000.00,-1000.00,-931.15
3.7487,3.7487,-1000.00,-1000.00,-1000.00,-1000.00
3.7487,3.7487,-705.08,-164.55,-504.88,-756.35
3.7487,3.7487,776.86,-968.26,876.95,729.49
3.7487,3.7487,-949.22,955.57,-970.70,-936.52
3.7487,3.7487,907.23,949.71,920.90,904.30
3.7487,3.7487,990.72,980.47,696.78,991.21
3.7487,3.7487,990.72,974.12,864.26,991.70
3.7487,3.7487,903.81,980.96,953.61,904.79
3.7487,3.7487,-937.50,936.52,-929.69,-936.52
3.7487,3.7487,729.00,989.26,466.31,729.49
3.7487,3.7487,-756.84,853.52,-861.82,-756.35
3.7942,3.7942,-1000.00,-390.63,-961.43,-1000.00
3.7942,3.7942,-931.15,-1000.00,-912.60,-931.15
3.7942,3.7942,-1000.00,-900.39,-1000.00,-1000.00
3.7943,3.7943,-1000.00,666.99,-948.73,-1000.00
3.7943,3.7943,-1000.00,741.70,-95.21,-1000.00
3.7943,3.7943,-937.01,-1000.00,-691.41,-926.27
3.7943,3.7943,-1000.00,-975.10,-1000.00,-1000.00
3.7943,3.7943,-356.45,556.15,222.17,-578.61
3.7943,3.7943,964.36,-914.06,-948.24,872.07
3.7943,3.7943,985.84,898.44,943.85,-975.59
3.7943,3.7943,933.59,987.79,917.97,916.99
3.7943,3.7943,985.84,975.59,889.65,992.19
3.8520,3.8520,969.73,971.19,938.96,966.80
3.8520,3.8520,919.92,919.92,904.79,925.78
3.8520,3.8520,-911.13,-909.67,968.26,-915.53
3.8520,3.8520,171.88,183.11,-305.18,109.86
3.8520,3.8520,-1000.00,-1000.00,-1000.00,-1000.00
3.8520,3.8520,-988.77,-990.23,-933.59,-979.98
3.8520,3.8520,-973.14,-972.66,-1000.00,-978.03
3.8520,3.8520,-1000.00,-1000.00,-997.56,-1000.00
3.8520,3.8520,-1000.00,-1000.00,-1000.00,-1000.00
3.8520,3.8520,-1000.00,-942.38,-909.67,-1000.00
3.8520,3.8520,-1000.00,-1000.00,-1000.00,-1000.00
3.8520,3.8520,-938.96,-891.11,-886.23,-941.41
3.8971,3.8971,-1000.00,569.82,-140.14,-1000.00
3.8971,3.8971,-851.56,-906.74,-373.05,-880.86
3.8971,3.8971,620.61,898.93,596.19,583.01
3.8971,3.8971,-916.02,989.75,-890.14,-909.18
3.8971,3.8971,899.41,973.63,858.40,898.93
3.8971,3.8971,989.75,973.63,967.77,989.75
3.8971,3.8971,973.14,973.63,-995.61,973.63
3.8971,3.8971,989.26,991.70,977.54,990.23
3.8972,3.8972,915.04,904.30,415.04,915.53
3.8972,3.8972,-973.14,-935.55,853.03,-972.17
3.8972,3.8972,863.28,725.10,878.42,864.26
3.8972,3.8972,-596.68,-760.74,-712.40,-596.19
3.9421,3.9421,-1000.00,-1000.00,-1000.00,-1000.00
3.9421,3.9421,-925.78,-931.64,-928.22,-925.78
3.9421,3.9421,-1000.00,-1000.00,-1000.00,-1000.00
3.9421,3.9421,-1000.00,-1000.00,-1000.00,-1000.00
3.9421,3.9421,-1000.00,-1000.00,-986.82,-1000.00
3.9421,3.9421,-1000.00,-1000.00,-1000.00,-1000.00
3.9421,3.9421,-998.05,-962.89,-914.55,-998.05
3.9421,3.9421,-946.78,-1000.00,-799.80,-946.78
3.9421,3.9421,-1000.00,-1000.00,-1000.00,-1000.00
3.9421,3.9421,-210.45,318.36,75.68,-209.96
3.9421,3.9421,-984.86,-886.72,-924.32,-984.38
3.9421,3.9421,962.89,903.32,950.20,963.38
3.9895,3.9895,944.82,980.96,936.04,945.80
3.9895,3.9895,980.47,973.63,729.00,981.45
3.9895,3.9895,973.14,973.63,910.64,973.63
3.9895,3.9895,972.66,973.63,-966.31,973.63
3.9895,3.9895,979.49,983.40,212.89,977.54
3.9895,3.9895,947.27,937.99,-497.56,959.47
3.9895,3.9895,954.10,975.10,631.35,936.52
3.9895,3.9895,-952.15,-992.19,-848.14,-926.27
3.9895,3.9895,-193.36,-325.20,-298.83,-16.11
3.9895,3.9895,-1000.00,-1000.00,-1000.00,-1000.00
3.9895,3.9895,-940.43,-931.15,-939.45,-962.40
3.9895,3.9895,-999.51,-1000.00,-1000.00,-987.30
4.0347,4.0347,-1000.00,-1000.00,-1000.00,-1000.00
4.0347,4.0347,-1000.00,-1000.00,-1000.00,-1000.00
4.0347,4.0347,-1000.00,-1000.00,-1000.00,-1000.00
4.0348,4.0348,-1000.00,-1000.00,-1000.00,-1000.00
4.0348,4.0348,-1000.00,-942.38,-995.61,-1000.00
4.0348,4.0348,-1000.00,-1000.00,-1000.00,-1000.00
4.0348,4.0348,-936.52,-891.11,-932.62,-936.52
4.0348,4.0348,-1000.00,569.82,-1000.00,-1000.00
4.0348,4.0348,-827.64,-906.74,-729.00,-827.15
4.0348,4.0348,652.34,898.93,756.84,652.83
4.0348,4.0348,-921.39,989.75,898.93,-920.90
4.0348,4.0348,900.39,973.63,728.52,900.39
4.0789,4.0789,992.19,973.63,-823.73,993.65
4.0789,4.0789,970.21,973.63,463.87,967.77
4.0789,4.0789,919.43,989.75,-688.96,924.32
4.0789,4.0789,-910.64,898.93,521.00,-914.55
4.0789,4.0789,182.62,-906.74,-70.80,125.98
4.0789,4.0789,-1000.00,569.82,-1000.00,-1000.00
4.0789,4.0789,-990.23,-891.11,-855.96,-982.42
4.0789,4.0789,-972.66,-1000.00,-1000.00,-976.56
4.0789,4.0789,-1000.00,-942.38,-989.26,-1000.00
4.0789,4.0789,-1000.00,-1000.00,-1000.00,-1000.00
4.0789,4.0789,-1000.00,-1000.00,-1000.00,-1000.00
4.0789,4.0789,-1000.00,-1000.00,-1000.00,-1000.00
4.1217,4.1217,-1000.00,-1000.00,-1000.00,-1000.00
4.1217,4.1217,-1000.00,-942.38,-999.51,-1000.00
4.1217,4.1217,-1000.00,-1000.00,-1000.00,-1000.00
4.1217,4.1217,-942.38,-891.11,-934.08,-942.38
4.1217,4.1217,-1000.00,569.82,-1000.00,-1000.00
4.1217,4.1217,-891.11,-906.74,-893.55,-891.11
4.1217,4.1217,568.85,898.93,572.75,569.82
4.1217,4.1217,-907.71,989.75,-915.53,-906.74
4.1217,4.1217,897.95,973.63,890.63,898.44
4.1217,4.1217,988.77,973.63,957.52,989.26
4.1217,4.1217,973.14,973.63,-986.33,973.63
4.1217,4.1217,989.26,989.75,764.16,990.23
4.1688,4.1688,915.04,916.02,235.84,915.53
4.1688,4.1688,-972.66,-972.17,930.18,-972.66
4.1688,4.1688,863.28,864.26,929.69,863.77
4.1688,4.1688,-596.68,-596.68,-638.67,-596.68
4.1688,4.1688,-1000.00,-1000.00,-1000.00,-1000.00
4.1688,4.1688,-925.78,-925.78,-925.78,-925.78
4.1688,4.1688,-1000.00,-1000.00,-1000.00,-1000.00
4.1688,4.1688,-1000.00,-1000.00,-1000.00,-1000.00
4.1688,4.1688,-1000.00,-1000.00,-998.05,-1000.00
4.1688,4.1688,-1000.00,-1000.00,-1000.00,-1000.00
4.1688,4.1688,-1000.00,-986.33,-976.56,-1000.00
4.1688,4.1688,-1000.00,-963.38,-982.91,-1000.00
4.2266,4.2266,-952.64,-1000.00,-977.05,-949.71
4.2266,4.2266,-1000.00,-10.25,-781.74,-1000.00
4.2266,4.2266,-966.80,-928.71,-745.61,-947.75
4.2266,4.2266,443.85,935.55,464.36,480.47
4.2266,4.2266,-894.04,960.45,-882.32,-896.00
4.2266,4.2266,898.44,977.05,857.42,898.44
4.2266,4.2266,985.35,973.63,972.17,987.30
4.2266,4.2266,972.66,973.63,977.05,973.63
4.2266,4.2266,987.79,990.23,996.09,985.84
4.2266,4.2266,920.41,916.02,883.30,930.18
4.2266,4.2266,-987.30,-972.17,974.61,990.72
4.2266,4.2266,907.23,864.26,899.41,969.24
4.2748,4.2748,-527.83,-596.68,-554.69,-414.55
4.2748,4.2748,-1000.00,-1000.00,-1000.00,-1000.00
4.2748,4.2748,-925.29,-925.78,-931.15,-927.25
4.2748,4.2748,-1000.00,-1000.00,-998.54,-1000.00
4.2748,4.2748,-1000.00,-1000.00,-979.49,-1000.00
4.2748,4.2748,-1000.00,-1000.00,-972.17,-1000.00
4.2748,4.2748,-1000.00,-1000.00,-1000.00,-1000.00
4.2748,4.2748,-1000.00,-1000.00,-937.01,-1000.00
4.2748,4.2748,-942.38,-940.43,-448.73,-942.38
4.2748,4.2748,-1000.00,-1000.00,-952.64,-1000.00
4.2748,4.2748,-891.11,-870.12,-949.71,-891.11
4.2748,4.2748,569.34,596.68,603.03,569.82
4.3168,4.3168,-907.71,-911.13,-914.55,-906.74
4.3168,4.3168,897.95,899.41,898.93,898.44
4.3168,4.3168,988.77,990.23,989.75,989.75
4.3168,4.3168,973.14,973.63,976.07,973.63
4.3168,4.3168,973.14,974.12,965.82,973.63
4.3168,4.3168,974.12,978.52,993.16,973.63
4.3168,4.3168,976.56,954.59,928.71,988.28
4.3168,4.3168,911.62,943.85,819.82,899.90
4.3168,4.3168,-906.74,-936.52,-905.76,-906.25
4.3168,4.3168,298.83,-87.89,274.90,537.11
4.3168,4.3168,-1000.00,-1000.00,-1000.00,-905.27
4.3168,4.3168,-1000.00,-953.61,-1000.00,-1000.00
4.3638,4.3638,-963.38,-992.19,-958.98,-945.31
4.3638,4.3638,-1000.00,-1000.00,-860.84,-1000.00
4.3638,4.3638,-1000.00,-1000.00,-948.73,-1000.00
4.3638,4.3638,-1000.00,-1000.00,-1000.00,-1000.00
4.3638,4.3638,-1000.00,-1000.00,-1000.00,-1000.00
4.3638,4.3638,-986.33,-942.87,-756.84,-983.40
4.3638,4.3638,-963.38,-1000.00,-817.38,-967.77
4.3638,4.3638,-1000.00,-895.02,-1000.00,-1000.00
4.3638,4.3638,-10.74,563.48,408.69,31.74
4.3638,4.3638,-929.69,-905.76,-891.11,-920.41
4.3638,4.3638,934.57,898.93,901.86,930.18
4.3638,4.3638,959.47,989.75,982.91,963.38
4.4063,4.4063,976.56,973.63,973.14,976.56
4.4063,4.4063,973.14,973.63,961.91,973.63
4.4063,4.4063,973.14,973.63,988.28,973.63
4.4063,4.4063,989.75,991.70,981.45,990.23
4.4063,4.4063,913.57,904.79,692.38,915.53
4.4063,4.4063,-968.26,-936.52,961.91,-972.17
4.4063,4.4063,846.68,729.49,862.79,864.26
4.4063,4.4063,-618.65,-756.35,-657.23,-596.68
4.4063,4.4063,-1000.00,-1000.00,-1000.00,-1000.00
4.4063,4.4063,-926.27,-931.15,-931.15,-925.78
4.4063,4.4063,-1000.00,-1000.00,-1000.00,-1000.00
4.4063,4.4063,-1000.00,-1000.00,-987.30,-1000.00
4.4516,4.4516,-1000.00,-1000.00,-986.82,-1000.00
4.4516,4.4516,-1000.00,-1000.00,-1000.00,-1000.00
4.4516,4.4516,-1000.00,-983.89,-888.18,-1000.00
4.4516,4.4516,-1000.00,-966.80,-765.63,-1000.00
4.4516,4.4516,-942.38,-1000.00,-1000.00,-942.38
4.4516,4.4516,-1000.00,22.95,-229.98,-1000.00
4.4516,4.4516,-891.11,-921.88,377.44,-891.11
4.4516,4.4516,568.85,931.15,633.30,569.82
4.4516,4.4516,-907.71,962.89,-951.17,-906.74
4.4516,4.4516,898.44,977.05,939.94,898.93
4.4516,4.4516,988.77,973.63,981.45,989.75
4.4516,4.4516,972.66,973.63,969.73,973.63
4.4969,4.4969,982.42,988.28,998.05,980.47
4.4969,4.4969,937.99,922.85,876.95,946.29
4.4969,4.4969,972.66,-990.72,911.13,957.03
4.4969,4.4969,-989.75,920.41,-983.89,-955.08
4.4969,4.4969,-318.36,-507.81,-333.01,-218.26
4.4969,4.4969,-1000.00,-1000.00,-1000.00,-1000.00
4.4969,4.4969,-931.15,-925.29,-939.45,-937.50
4.4969,4.4969,-1000.00,-1000.00,-994.63,-1000.00
4.4969,4.4969,-1000.00,-1000.00,-930.18,-1000.00
4.4969,4.4969,-1000.00,-1000.00,-986.82,-1000.00
4.4969,4.4969,-1000.00,-1000.00,-1000.00,-1000.00
4.4969,4.4969,-1000.00,-1000.00,-1000.00,-1000.00
4.5425,4.5425,-1000.00,-929.69,-853.03,-1000.00
4.5425,4.5425,-1000.00,-1000.00,-882.81,-1000.00
4.5425,4.5425,-936.52,-721.19,-902.34,-936.04
4.5425,4.5425,-1000.00,762.21,-1000.00,-1000.00
4.5425,4.5425,-827.64,-944.34,-694.82,-820.31
4.5425,4.5425,652.34,906.74,782.23,660.64
4.5425,4.5425,-921.39,991.21,-967.77,-922.36
4.5425,4.5425,899.90,973.63,905.76,900.88
4.5425,4.5425,990.23,973.63,989.26,991.21
4.5425,4.5425,973.14,973.63,939.94,973.63
4.5425,4.5425,990.23,991.21,908.69,991.21
4.5425,4.5425,907.23,901.37,833.01,911.13
4.5924,4.5924,-948.73,-921.39,990.72,-958.01
4.5924,4.5924,776.86,657.23,733.40,813.96
4.5924,4.5924,-705.08,-823.24,-712.40,-661.62
4.5924,4.5924,-1000.00,-1000.00,-1000.00,-1000.00
4.5924,4.5924,-928.71,-936.04,-928.22,-927.25
4.5924,4.5924,-1000.00,-1000.00,-1000.00,-1000.00
4.5924,4.5924,-1000.00,-1000.00,-1000.00,-1000.00
4.5924,4.5924,-1000.00,-1000.00,-998.05,-1000.00
4.5924,4.5924,-1000.00,-1000.00,-1000.00,-1000.00
4.5924,4.5924,-1000.00,-1000.00,-982.42,-1000.00
4.5924,4.5924,-956.54,-931.15,-984.86,-1000.00
4.5924,4.5924,-1000.00,-1000.00,-950.20,-949.71
4.6470,4.6470,-757.81,-756.35,-1000.00,-1000.00
4.6470,4.6470,-189.94,729.98,-926.27,-947.27
4.6470,4.6470,458.98,-936.52,516.60,481.45
4.6470,4.6470,-935.06,920.90,-899.90,-888.67
4.6470,4.6470,884.77,933.59,823.24,869.63
4.6470,4.6470,-970.70,-972.17,-958.50,973.63
4.6470,4.6470,863.28,864.26,875.00,-960.45
4.6470,4.6470,-595.70,-596.68,-579.10,-234.86
4.6470,4.6470,-1000.00,-1000.00,-1000.00,-1000.00
4.6470,4.6470,-922.36,-932.13,-925.78,-936.52
4.6470,4.6470,-973.63,-989.26,-1000.00,-1000.00
4.6470,4.6470,-1000.00,-984.38,-1000.00,-1000.00
4.6918,4.6918,-1000.00,-1000.00,-941.89,-942.38
4.6918,4.6918,271.48,191.41,-1000.00,-1000.00
4.6918,4.6918,333.01,-887.21,-869.63,-886.72
4.6918,4.6918,400.88,910.64,505.86,553.71
4.6918,4.6918,-955.08,990.72,888.18,-955.08
4.6918,4.6918,-966.31,898.93,674.80,-932.13
4.6918,4.6918,604.98,-912.60,-441.89,-138.18
4.6918,4.6918,-595.70,805.18,-528.81,-673.34
4.6918,4.6918,-717.77,-477.05,-339.84,915.04
4.6918,4.6918,618.16,393.55,383.30,-903.81
4.6918,4.6918,966.80,-789.06,-330.08,-290.04
4.6918,4.6918,-609.38,812.99,-1000.00,-1000.00
4.7372,4.7372,-1000.00,-586.43,-849.61,-953.13
4.7372,4.7372,-799.32,-1000.00,-970.21,-943.85
4.7372,4.7372,573.24,381.35,-1000.00,-1000.00
4.7372,4.7372,611.33,-742.68,-697.75,-874.51
4.7372,4.7372,-360.84,-208.01,-361.82,507.32
4.7372,4.7372,-529.79,-383.30,-164.55,-842.29
4.7372,4.7372,824.71,934.57,363.77,821.78
4.7372,4.7372,931.64,-862.79,-731.93,-699.22
4.7372,4.7372,-113.77,624.51,-256.35,-333.98
4.7372,4.7372,-791.02,-755.86,-376.46,-841.80
4.7372,4.7372,321.29,263.18,-64.45,830.57
4.7372,4.7372,-823.73,-751.46,-623.05,-620.61
4.7831,4.7831,-455.08,709.47,-951.17,-1000.00
4.7831,4.7831,-1000.00,-668.46,-742.68,-925.78
4.7831,4.7831,231.45,-1000.00,-1000.00,-1000.00
4.7831,4.7831,-795.41,-943.85,-989.26,-1000.00
4.7831,4.7831,670.90,-959.96,-998.05,-1000.00
4.7831,4.7831,-881.35,-1000.00,-1000.00,-1000.00
4.7831,4.7831,-133.30,-874.51,-925.78,-942.38
4.7831,4.7831,-972.66,479.98,-1000.00,-1000.00
4.7831,4.7831,-900.88,-717.77,-718.75,-873.05
4.7831,4.7831,556.64,408.20,111.33,494.63
4.7831,4.7831,-429.69,-445.80,44.43,-793.95
4.7831,4.7831,750.98,802.73,31.74,660.64
4.8300,4.8300,-901.37,-911.62,-981.45,-840.33
4.8300,4.8300,864.26,899.41,6.84,-117.19
4.8300,4.8300,-1000.00,-995.12,-756.35,-745.12
4.8300,4.8300,900.88,922.36,370.61,590.33
4.8300,4.8300,-910.64,-989.26,-992.19,-837.40
4.8300,4.8300,789.55,916.02,-916.02,-1000.00
4.8300,4.8300,-457.03,-515.63,-733.89,-936.52
4.8300,4.8300,502.93,-1000.00,-1000.00,-1000.00
4.8300,4.8300,-841.80,-927.25,-1000.00,-1000.00
4.8300,4.8300,884.28,-1000.00,-992.19,-987.30
4.8300,4.8300,989.75,-946.29,-1000.00,-982.42
4.8300,4.8300,973.14,-1000.00,-1000.00,-1000.00
4.8749,4.8749,973.14,-209.96,-976.07,-156.74
4.8749,4.8749,973.14,-983.89,-1000.00,-188.96
4.8749,4.8749,973.14,963.87,-883.30,-1000.00
4.8749,4.8749,973.14,945.80,-660.16,-1000.00
4.8749,4.8749,973.14,981.45,-976.56,350.10
4.8749,4.8749,973.14,973.63,-1000.00,-951.66
4.8749,4.8749,973.14,973.63,-982.91,-689.94
4.8749,4.8749,973.14,973.63,-1000.00,-1000.00
4.8749,4.8749,973.14,973.63,-946.29,498.54
4.8749,4.8749,973.14,973.63,-1000.00,-909.18
4.8749,4.8749,973.14,974.12,-965.82,900.39
4.8749,4.8749,973.14,983.40,343.75,-1000.00
4.9194,4.9194,973.14,938.48,-306.64,910.64
4.9194,4.9194,973.14,973.63,-1000.00,-948.73
4.9194,4.9194,973.14,-988.77,-920.41,898.44
4.9194,4.9194,973.14,-317.87,-1000.00,-565.92
4.9194,4.9194,973.14,-1000.00,-1000.00,174.80
4.9194,4.9194,973.14,-931.15,-1000.00,-823.24
4.9194,4.9194,973.14,-1000.00,-1000.00,916.02
4.9194,4.9194,973.14,-1000.00,-1000.00,902.34
4.9194,4.9194,973.14,-1000.00,-1000.00,849.12
4.9194,4.9194,973.14,-1000.00,-1000.00,986.82
4.9194,4.9194,973.14,-1000.00,-1000.00,974.12
4.9194,4.9194,973.14,-1000.00,-1000.00,970.21
4.9770,4.9770,973.14,-1000.00,-1000.00,973.63
4.9770,4.9770,973.14,-1000.00,-1000.00,973.63
4.9770,4.9770,973.14,-1000.00,-1000.00,973.63
4.9770,4.9770,973.14,-1000.00,-1000.00,973.63
4.9770,4.9770,973.14,-1000.00,-1000.00,973.63
4.9770,4.9770,973.14,-1000.00,-1000.00,973.63
4.9770,4.9770,973.14,-1000.00,-949.71,973.63
4.9770,4.9770,973.14,-1000.00,-1000.00,973.63
4.9770,4.9770,973.14,-1000.00,-698.73,973.63
4.9770,4.9770,973.14,-1000.00,-231.93,973.63
4.9770,4.9770,973.14,-1000.00,-859.86,973.63
4.9770,4.9770,973.14,-1000.00,-1000.00,973.63
5.0220,5.0220,973.14,-1000.00,-541.99,973.63
5.0220,5.0220,973.14,-1000.00,679.20,990.23
5.0220,5.0220,973.14,-1000.00,-538.09,896.00
5.0220,5.0220,973.14,-942.38,-1000.00,-902.83
5.0220,5.0220,973.14,-1000.00,-763.67,768.55
5.0220,5.0220,974.12,-874.51,-624.02,-499.02
5.0220,5.0220,965.33,511.72,267.09,416.99
5.0220,5.0220,974.61,-867.19,-521.00,-772.46
5.0220,5.0220,998.05,862.79,-111.33,814.45
5.0220,5.0220,704.10,-684.57,-531.25,-663.09
5.0220,5.0220,745.12,-741.70,-775.39,-271.48
5.0220,5.0220,-976.56,990.72,341.80,-849.12
5.0696,5.0696,-970.70,954.59,148.93,882.32
5.0696,5.0696,-475.10,-689.45,-634.77,-654.30
5.0696,5.0696,-785.64,-1000.00,-1000.00,-1000.00
5.0696,5.0696,918.95,696.78,605.96,693.36
5.0696,5.0696,-955.57,970.21,972.17,982.91
5.0696,5.0696,-535.64,-603.03,-593.26,-612.30
5.0696,5.0696,-1000.00,-1000.00,-1000.00,-1000.00
5.0696,5.0696,561.04,-99.61,-309.08,4.39
5.0696,5.0696,-916.02,929.20,903.32,-980.96
5.0696,5.0696,-377.93,-447.75,-335.45,-346.19
5.0696,5.0696,-1000.00,-1000.00,-1000.00,-1000.00
5.0696,5.0696,-451.17,-766.11,-835.94,-805.18
5.1121,5.1121,945.31,700.68,669.92,721.19
5.1121,5.1121,-34.67,-7.32,243.65,252.44
5.1121,5.1121,-1000.00,-1000.00,-1000.00,-1000.00
5.1121,5.1121,-895.51,-887.70,-944.34,-973.63
5.1121,5.1121,675.78,661.13,619.63,574.71
5.1121,5.1121,806.15,840.82,905.76,894.53
5.1121,5.1121,-907.23,-854.49,-748.54,-716.80
5.1121,5.1121,-1000.00,-1000.00,-1000.00,-1000.00
5.1121,5.1121,515.14,411.62,201.17,-116.21
5.1121,5.1121,975.10,971.68,952.15,854.98
5.1121,5.1121,-605.47,-590.82,-557.13,-539.55
5.1121,5.1121,-1000.00,-1000.00,-1000.00,-1000.00
5.1572,5.1572,-316.41,-521.48,-620.61,-774.90
5.1572,5.1572,928.22,848.14,765.63,605.96
5.1572,5.1572,997.07,-967.29,-954.59,-973.14
5.1572,5.1572,915.04,896.48,927.25,974.61
5.1572,5.1572,885.25,960.45,842.77,700.68
5.1572,5.1572,771.97,-946.78,963.87,-731.45
5.1572,5.1572,-416.99,-52.25,146.48,-1000.00
5.1572,5.1572,-1000.00,-1000.00,-1000.00,-936.52
5.1572,5.1572,-997.56,-1000.00,-1000.00,-1000.00
5.1572,5.1572,378.42,431.64,162.11,-1000.00
5.1572,5.1572,166.02,792.97,795.41,-1000.00
5.1572,5.1572,-1000.00,-827.64,-728.03,-1000.00
5.2192,5.2192,-1000.00,-1000.00,-1000.00,-1000.00
5.2192,5.2192,-425.78,-91.80,-404.30,-1000.00
5.2192,5.2192,511.72,871.58,740.23,-1000.00
5.2192,5.2192,-718.75,-541.50,-493.16,-1000.00
5.2192,5.2192,-1000.00,-1000.00,-1000.00,-936.52
5.2192,5.2192,-806.64,-735.35,-783.20,-1000.00
5.2192,5.2192,560.55,647.46,577.15,-827.15
5.2192,5.2192,-909.18,-922.85,-911.13,652.83
5.2192,5.2192,897.95,901.37,899.41,-920.90
5.2192,5.2192,989.26,991.21,990.23,900.88
5.2192,5.2192,973.14,973.63,976.07,991.21
5.2192,5.2192,972.66,973.63,966.31,973.63
5.2498,5.2498,973.14,973.63,989.26,973.63
5.2499,5.2499,973.14,973.63,940.43,973.63
5.2499,5.2499,973.14,973.63,874.51,973.63
5.2499,5.2499,982.91,989.75,975.59,989.75
5.2499,5.2499,903.81,898.44,916.99,898.44
5.2499,5.2499,-905.27,-906.74,-914.06,-906.74
5.2499,5.2499,436.04,569.82,371.09,569.34
5.2499,5.2499,-949.22,-906.25,-970.70,-891.11
5.2499,5.2499,-1000.00,-984.38,-955.08,-1000.00
5.2499,5.2499,-953.13,-1000.00,-1000.00,-943.85
5.2499,5.2499,-1000.00,-887.70,-927.73,-1000.00
5.2499,5.2499,-1000.00,399.41,310.55,-921.39
5.2912,5.2912,-1000.00,-433.11,-542.48,-1000.00
5.2913,5.2913,-1000.00,-1000.00,4.39,-290.53
5.2913,5.2913,-1000.00,-982.42,925.78,849.12
5.2913,5.2913,-1000.00,212.89,330.08,-509.28
5.2913,5.2913,-1000.00,-195.80,-409.67,-1000.00
5.2913,5.2913,-1000.00,-1000.00,-117.19,-404.79
5.2913,5.2913,-1000.00,-1000.00,901.86,955.08
5.2913,5.2913,-936.52,-596.68,14.16,-116.21
5.2913,5.2913,-1000.00,157.71,-41.02,-1000.00
5.2913,5.2913,-827.64,-820.80,-290.53,-680.18
5.2913,5.2913,652.34,-1000.00,721.68,729.00
5.2913,5.2913,-921.39,-598.63,-924.32,-936.52
5.3522,5.3522,899.90,804.20,880.37,904.30
5.3522,5.3522,990.23,-958.50,993.16,991.21
5.3522,5.3522,973.14,911.13,974.12,973.63
5.3522,5.3522,972.66,990.72,967.29,973.63
5.3522,5.3522,973.14,973.63,967.29,973.63
5.3522,5.3522,973.14,973.63,960.94,973.63
5.3523,5.3523,972.66,973.63,-998.05,973.63
5.3523,5.3523,973.14,973.63,911.62,973.63
5.3523,5.3523,977.05,977.54,799.80,978.03
5.3523,5.3523,958.50,959.47,941.41,957.52
5.3523,5.3523,935.55,936.52,966.80,939.94
5.3523,5.3523,-927.25,-926.27,-966.31,-930.66
5.3997,5.3997,-17.09,-16.11,-166.02,-47.85
5.3997,5.3997,-1000.00,-1000.00,-1000.00,-1000.00
5.3997,5.3997,-962.40,-887.70,-881.35,-958.50
5.3997,5.3997,-987.30,-1000.00,-1000.00,-989.26
5.3997,5.3997,-1000.00,-840.33,-899.90,-1000.00
5.3997,5.3997,-1000.00,443.85,332.52,-1000.00
5.3997,5.3997,-1000.00,-409.18,-412.11,-1000.00
5.3997,5.3997,-1000.00,-1000.00,-1000.00,-1000.00
5.3997,5.3997,-1000.00,-800.29,-884.28,-1000.00
5.3997,5.3997,-1000.00,581.54,477.05,-1000.00
5.3997,5.3997,-1000.00,-163.09,-116.70,-1000.00
5.3997,5.3997,-986.33,-1000.00,-1000.00,-986.33
5.4427,5.4427,-963.38,-952.64,-1000.00,-963.38
5.4427,5.4427,-1000.00,285.16,29.79,-1000.00
5.4428,5.4428,-10.74,-885.25,-930.18,-10.25
5.4428,5.4428,-929.20,904.79,937.01,-928.71
5.4428,5.4428,934.57,979.98,958.01,935.55
5.4428,5.4428,959.96,974.12,915.53,960.45
5.4428,5.4428,976.56,973.63,955.08,977.54
5.4428,5.4428,973.14,973.63,977.05,973.63
5.4428,5.4428,973.14,973.63,994.14,973.63
5.4428,5.4428,973.14,973.63,838.38,973.63
5.4428,5.4428,989.26,990.23,861.82,990.23
5.4428,5.4428,915.04,915.53,933.11,916.02
5.4893,5.4893,-973.14,-972.17,-969.73,-972.17
5.4893,5.4893,863.28,864.26,826.17,864.26
5.4893,5.4893,-596.68,-596.68,-644.04,-596.68
5.4893,5.4893,-1000.00,-1000.00,-1000.00,-1000.00
5.4893,5.4893,-925.78,-925.78,-925.29,-925.78
5.4893,5.4893,-1000.00,-1000.00,-1000.00,-1000.00
5.4893,5.4893,-1000.00,-1000.00,-1000.00,-1000.00
5.4893,5.4893,-1000.00,-1000.00,-979.98,-1000.00
5.4893,5.4893,-1000.00,-909.18,-902.34,-1000.00
5.4893,5.4893,-1000.00,-1000.00,-1000.00,-1000.00
5.4893,5.4893,-1000.00,-542.48,-710.94,-1000.00
5.4893,5.4893,-1000.00,738.28,579.59,-1000.00
5.5351,5.5351,-948.73,-484.38,-446.29,-950.20
5.5351,5.5351,-1000.00,-1000.00,-1000.00,-1000.00
5.5351,5.5351,-941.41,-799.80,-798.83,-951.66
5.5351,5.5351,489.75,553.71,553.71,473.14
5.5351,5.5351,-897.95,-906.74,-906.74,-895.51
5.5351,5.5351,897.95,898.93,898.93,898.44
5.5351,5.5351,986.82,989.26,989.75,986.82
5.5351,5.5351,972.66,973.63,977.54,973.63
5.5351,5.5351,972.66,973.63,960.94,973.63
5.5351,5.5351,972.66,973.63,999.51,973.63
5.5351,5.5351,973.14,973.63,916.99,973.63
5.5351,5.5351,973.63,974.12,811.04,974.12
5.5770,5.5770,980.47,980.96,955.08,980.47
5.5770,5.5770,906.25,907.23,938.48,907.71
5.5770,5.5770,-903.81,-903.32,-933.59,-903.81
5.5770,5.5770,378.91,379.39,89.84,371.58
5.5770,5.5770,-974.12,-974.12,-1000.00,-977.05
5.5770,5.5770,-1000.00,-1000.00,-980.96,-1000.00
5.5770,5.5770,-957.52,-957.52,-975.10,-958.01
5.5770,5.5770,-1000.00,-1000.00,-1000.00,-1000.00
5.5770,5.5770,-1000.00,-1000.00,-984.86,-1000.00
5.5770,5.5770,-1000.00,-949.71,-918.46,-1000.00
5.5770,5.5770,-986.33,-1000.00,-1000.00,-984.86
5.5770,5.5770,-963.38,-947.27,-1000.00,-965.33
5.6247,5.6247,-1000.00,481.45,280.76,-1000.00
5.6247,5.6247,-10.74,-896.00,-895.02,12.21
5.6247,5.6247,-929.20,898.44,910.64,-924.32
5.6247,5.6247,934.57,987.30,973.14,932.62
5.6247,5.6247,959.47,973.63,962.40,961.91
5.6247,5.6247,976.56,973.63,965.33,977.05
5.6247,5.6247,973.14,973.63,983.40,973.63
5.6247,5.6247,972.66,973.63,975.10,973.63
5.6247,5.6247,973.14,973.63,782.23,973.63
5.6247,5.6247,990.23,990.23,904.79,990.72
5.6247,5.6247,908.69,914.06,934.08,909.67
5.6247,5.6247,-954.59,-967.77,-953.61,-954.10
5.6698,5.6698,799.80,848.14,734.38,800.29
5.6699,5.6699,-679.69,-617.19,-746.09,-679.69
5.6699,5.6699,-1000.00,-1000.00,-1000.00,-1000.00
5.6699,5.6699,-927.73,-926.27,-927.73,-927.73
5.6699,5.6699,-1000.00,-1000.00,-1000.00,-1000.00
5.6699,5.6699,-1000.00,-1000.00,-1000.00,-1000.00
5.6699,5.6699,-1000.00,-986.33,-905.27,-1000.00
5.6699,5.6699,-1000.00,-963.38,-887.70,-1000.00
5.6699,5.6699,-936.52,-1000.00,-1000.00,-936.52
5.6699,5.6699,-1000.00,-10.25,-459.96,-1000.00
5.6699,5.6699,-827.15,-928.71,897.46,-827.15
5.6699,5.6699,652.34,935.55,-990.23,652.83
5.7262,5.7262,-921.39,960.45,925.78,-920.90
5.7262,5.7262,899.90,977.54,959.47,900.88
5.7262,5.7262,990.23,973.63,962.89,991.21
5.7262,5.7262,973.14,973.63,973.63,973.63
5.7262,5.7262,973.14,980.96,987.79,973.63
5.7262,5.7262,973.14,945.80,907.71,973.63
5.7262,5.7262,990.23,959.47,918.95,991.21
5.7262,5.7262,899.41,-958.98,896.48,900.88
5.7262,5.7262,-917.97,-229.49,-938.48,-920.41
5.7262,5.7262,631.84,-1000.00,541.99,652.83
5.7262,5.7262,-843.26,-937.01,-889.65,-827.15
5.7262,5.7262,-1000.00,-1000.00,-1000.00,-1000.00
5.7749,5.7749,-937.99,-1000.00,-945.31,-936.52
5.7749,5.7749,-1000.00,-1000.00,-1000.00,-1000.00
5.7749,5.7749,-1000.00,-1000.00,-1000.00,-1000.00
5.7749,5.7749,-1000.00,-1000.00,-1000.00,-1000.00
5.7749,5.7749,-960.45,-927.25,-925.78,-1000.00
5.7749,5.7749,-1000.00,-1000.00,-1000.00,-938.96
5.7749,5.7749,-1000.00,-669.92,-817.87,-1000.00
5.7749,5.7749,348.63,808.11,655.27,-330.57
5.7749,5.7749,-888.18,-956.05,-924.80,973.63
5.7749,5.7749,901.37,910.16,906.74,982.42
5.7749,5.7749,981.45,991.21,972.66,936.52
5.7749,5.7749,972.66,973.63,953.61,983.89
5.8195,5.8195,973.14,973.63,971.68,973.63
5.8195,5.8195,973.14,983.89,992.68,973.63
5.8195,5.8195,973.14,936.04,904.79,973.63
5.8195,5.8195,989.26,978.52,952.64,989.75
5.8195,5.8195,915.04,999.02,877.93,915.53
5.8195,5.8195,-972.66,-345.70,549.80,-972.17
5.8195,5.8195,863.77,-1000.00,673.34,864.26
5.8195,5.8195,-596.68,-930.18,-550.78,-596.68
5.8195,5.8195,-1000.00,-1000.00,-1000.00,-1000.00
5.8195,5.8195,-925.78,-1000.00,-920.90,-925.78
5.8195,5.8195,-1000.00,-1000.00,-1000.00,-1000.00
5.8195,5.8195,-1000.00,-1000.00,-1000.00,-1000.00
5.8640,5.8640,-1000.00,-1000.00,-996.09,-1000.00
5.8640,5.8640,-1000.00,-942.38,-868.16,-1000.00
5.8640,5.8640,-926.76,-1000.00,-1000.00,-931.15
5.8640,5.8640,-1000.00,-891.11,-979.49,-1000.00
5.8640,5.8640,-650.88,569.82,362.79,-756.35
5.8640,5.8640,821.78,-906.74,-920.41,729.49
5.8640,5.8640,-960.94,898.93,917.48,-936.52
5.8640,5.8640,911.13,989.75,965.33,904.30
5.8640,5.8640,990.23,973.63,956.54,991.21
5.8640,5.8640,973.14,973.63,953.61,973.63
5.8640,5.8640,973.14,973.63,-989.26,973.63
5.8640,5.8640,973.14,989.26,916.02,973.63
5.9096,5.9096,985.35,899.41,630.37,983.40
5.9097,5.9097,929.69,-906.74,862.30,938.48
5.9097,5.9097,990.23,559.57,828.13,973.63
5.9097,5.9097,968.75,-895.51,799.80,-988.77
5.9097,5.9097,-414.55,-1000.00,-384.77,-317.87
5.9097,5.9097,-1000.00,-943.36,-1000.00,-1000.00
5.9097,5.9097,-927.25,-1000.00,-926.27,-931.15
5.9097,5.9097,-1000.00,-1000.00,-1000.00,-1000.00
5.9097,5.9097,-1000.00,-1000.00,-997.07,-1000.00
5.9097,5.9097,-1000.00,-1000.00,-1000.00,-1000.00
5.9097,5.9097,-1000.00,-962.40,-928.71,-1000.00
5.9097,5.9097,-1000.00,-1000.00,-975.59,-1000.00
5.9551,5.9551,-942.38,-1000.00,-987.79,-942.38
5.9551,5.9551,-1000.00,327.64,-350.10,-1000.00
5.9551,5.9551,-891.11,-886.72,-270.51,-891.11
5.9551,5.9551,569.34,903.32,597.17,569.82
5.9551,5.9551,-907.71,981.45,-896.97,-906.74
5.9551,5.9551,897.95,973.63,876.46,898.93
5.9551,5.9551,988.77,973.63,979.49,989.75
5.9551,5.9551,973.14,973.63,976.56,973.63
5.9551,5.9551,987.79,990.23,-990.23,984.38
5.9551,5.9551,921.88,916.02,710.94,934.57
5.9551,5.9551,-991.70,-972.17,872.07,981.93
5.9551,5.9551,919.92,864.26,937.50,990.23
5.9998,5.9998,-508.30,-596.68,-546.88,-366.21
5.9998,5.9998,-1000.00,-1000.00,-1000.00,-1000.00
5.9998,5.9998,-925.29,-925.78,-927.73,-929.20
5.9998,5.9998,-1000.00,-1000.00,-1000.00,-1000.00
5.9998,5.9998,-1000.00,-927.25,-1000.00,-1000.00
5.9998,5.9998,-942.38,-1000.00,-941.89,-942.38
5.9998,5.9998,-1000.00,-670.41,-1000.00,-1000.00
5.9998,5.9998,-891.11,807.62,-885.25,-891.11
5.9998,5.9998,568.85,-956.05,596.19,569.82
5.9999,5.9999,-907.23,910.16,-919.92,-906.74
5.9999,5.9999,897.95,991.21,779.30,898.93
5.9999,5.9999,988.77,973.63,951.17,989.75
6.0441,6.0441,973.14,973.63,986.33,973.63
6.0441,6.0441,989.26,990.23,-986.82,990.23
6.0441,6.0441,915.04,915.53,647.95,916.02
6.0441,6.0441,-973.14,-972.17,831.54,-972.17
6.0441,6.0441,863.28,864.26,917.97,863.77
6.0441,6.0441,-596.68,-596.68,-614.75,-596.68
6.0441,6.0441,-1000.00,-1000.00,-1000.00,-1000.00
6.0441,6.0441,-925.78,-925.78,-925.78,-925.78
6.0441,6.0441,-1000.00,-1000.00,-1000.00,-1000.00
6.0441,6.0441,-1000.00,-1000.00,-1000.00,-1000.00
6.0441,6.0441,-1000.00,-1000.00,-988.28,-1000.00
6.0441,6.0441,-1000.00,-1000.00,-1000.00,-1000.00
6.0896,6.0896,-1000.00,-1000.00,-955.08,-1000.00
6.0896,6.0896,-1000.00,-935.06,-819.34,-1000.00
6.0896,6.0896,-973.14,-1000.00,-1000.00,-973.14
6.0896,6.0896,-984.38,-384.77,-682.13,-983.89
6.0896,6.0896,-1000.00,955.08,-554.20,-1000.00
6.0896,6.0896,190.92,991.21,279.79,191.41
6.0896,6.0896,-888.18,932.13,-884.28,-887.21
6.0896,6.0896,910.16,985.35,911.62,910.64
6.0896,6.0896,973.63,973.63,980.47,974.12
6.0896,6.0896,973.14,973.63,971.19,974.12
6.0896,6.0896,975.10,982.42,986.33,974.61
6.0896,6.0896,970.21,941.41,927.73,978.03
6.1468,6.1468,918.95,967.29,899.41,911.13
6.1468,6.1468,-910.64,-976.07,-924.80,-905.27
6.1468,6.1468,183.11,-279.79,-5.37,314.45
6.1468,6.1468,-1000.00,-1000.00,-1000.00,-997.07
6.1468,6.1468,-990.23,-933.59,-970.70,-1000.00
6.1468,6.1468,-972.66,-1000.00,-979.98,-962.40
6.1468,6.1468,-1000.00,-1000.00,-955.08,-1000.00
6.1468,6.1468,-1000.00,-1000.00,-984.38,-1000.00
6.1468,6.1468,-1000.00,-1000.00,-1000.00,-1000.00
6.1468,6.1468,-1000.00,-1000.00,-1000.00,-1000.00
6.1468,6.1468,-1000.00,-942.38,-779.30,-1000.00
6.1468,6.1468,-1000.00,-1000.00,-1000.00,-1000.00
6.1949,6.1949,-927.73,-891.11,-783.69,-927.73
6.1949,6.1949,-1000.00,569.82,-65.43,-1000.00
6.1949,6.1949,-679.69,-906.74,-203.13,-679.69
6.1949,6.1949,799.80,898.93,794.92,800.29
6.1949,6.1949,-954.59,989.75,-930.66,-954.10
6.1949,6.1949,908.69,973.63,918.95,909.67
6.1949,6.1949,990.23,973.63,965.82,991.21
6.1949,6.1949,973.14,973.63,-990.23,973.63
6.1949,6.1949,989.26,990.72,931.15,989.75
6.1949,6.1949,915.04,900.39,592.29,915.53
6.1949,6.1949,-971.68,-917.48,997.56,-972.17
6.1949,6.1949,858.89,633.79,733.40,863.77
6.2399,6.2399,-602.54,-841.80,-763.18,-596.68
6.2399,6.2399,-1000.00,-1000.00,-1000.00,-1000.00
6.2399,6.2399,-925.78,-943.85,-936.04,-925.78
6.2399,6.2399,-1000.00,-994.14,-991.70,-1000.00
6.2399,6.2399,-1000.00,-977.54,-1000.00,-1000.00
6.2399,6.2399,-931.15,-1000.00,-935.55,-931.15
6.2399,6.2399,-1000.00,129.88,-1000.00,-1000.00
6.2399,6.2399,-756.84,-899.90,-538.09,-754.39
6.2399,6.2399,729.00,918.46,885.25,731.93
6.2399,6.2399,-937.50,970.21,997.56,-937.01
6.2399,6.2399,903.81,975.10,885.74,904.30
6.2399,6.2399,990.72,973.63,963.87,991.21
6.2848,6.2848,972.66,973.63,-982.42,973.63
6.2848,6.2848,990.72,989.75,933.11,991.21
6.2848,6.2848,903.81,898.44,449.71,905.27
6.2848,6.2848,-937.01,-906.74,964.84,-938.96
6.2848,6.2848,727.54,569.34,728.03,740.23
6.2848,6.2848,-757.81,-891.11,-839.84,-745.12
6.2848,6.2848,-1000.00,-1000.00,-1000.00,-1000.00
6.2848,6.2848,-931.64,-942.38,-937.01,-930.66
6.2848,6.2848,-1000.00,-1000.00,-1000.00,-1000.00
6.2849,6.2849,-1000.00,-1000.00,-993.16,-1000.00
6.2849,6.2849,-1000.00,-1000.00,-1000.00,-1000.00
6.2849,6.2849,-1000.00,-1000.00,-1000.00,-1000.00
6.3299,6.3299,-1000.00,-964.36,-962.89,-1000.00
6.3299,6.3299,-1000.00,-1000.00,-1000.00,-1000.00
6.3299,6.3299,-942.38,-1000.00,-982.42,-942.38
6.3299,6.3299,-1000.00,301.76,-225.59,-1000.00
6.3299,6.3299,-891.11,-885.74,-404.30,-891.11
6.3299,6.3299,568.85,903.81,428.71,569.82
6.3299,6.3299,-907.71,979.98,-854.00,-906.74
6.3299,6.3299,897.95,973.63,875.49,898.93
6.3299,6.3299,988.77,973.63,980.96,989.75
6.3299,6.3299,973.14,973.63,974.61,973.63
6.3299,6.3299,988.28,990.23,-983.89,988.28
6.3299,6.3299,919.92,915.53,675.78,922.85
6.3742,6.3742,-985.84,-972.17,852.05,-990.72
6.3742,6.3742,902.83,864.26,930.66,920.41
6.3742,6.3742,-534.67,-596.68,-583.98,-507.81
6.3742,6.3742,-1000.00,-1000.00,-1000.00,-1000.00
6.3742,6.3742,-925.29,-925.78,-925.78,-925.29
6.3742,6.3742,-1000.00,-1000.00,-1000.00,-1000.00
6.3742,6.3742,-1000.00,-1000.00,-1000.00,-1000.00
6.3742,6.3742,-1000.00,-1000.00,-988.28,-1000.00
6.3742,6.3742,-1000.00,-1000.00,-1000.00,-1000.00
6.3742,6.3742,-1000.00,-1000.00,-967.29,-1000.00
6.3742,6.3742,-949.22,-927.73,-773.44,-956.05
6.3742,6.3742,-1000.00,-1000.00,-1000.00,-1000.00
6.4177,6.4177,-944.34,-679.69,-846.68,-986.82
6.4177,6.4177,485.35,800.78,647.46,405.27
6.4177,6.4177,-896.97,-954.10,-920.90,-890.14
6.4177,6.4177,897.95,909.18,903.32,899.90
6.4177,6.4177,986.82,991.21,983.89,984.38
6.4177,6.4177,973.14,973.63,968.75,973.63
6.4177,6.4177,973.14,973.63,963.87,973.63
6.4177,6.4177,980.96,986.82,-988.77,979.98
6.4177,6.4177,942.87,927.73,861.82,947.75
6.4177,6.4177,962.40,997.07,831.05,955.08
6.4177,6.4177,-968.26,952.64,-982.91,-952.15
6.4177,6.4177,-255.86,-446.78,-313.48,-197.27
6.4767,6.4767,-1000.00,-1000.00,-1000.00,-1000.00
6.4767,6.4767,-935.06,-926.76,-939.94,-939.94
6.4767,6.4767,-1000.00,-1000.00,-995.12,-1000.00
6.4767,6.4767,-1000.00,-942.38,-945.31,-1000.00
6.4767,6.4767,-965.33,-1000.00,-987.79,-963.38
6.4767,6.4767,-1000.00,-891.11,-1000.00,-1000.00
6.4767,6.4767,-1000.00,569.82,-150.88,-1000.00
6.4768,6.4768,290.53,-906.74,887.70,310.55
6.4768,6.4768,-886.23,898.93,984.38,-886.23
6.4768,6.4768,903.81,989.75,946.29,903.81
6.4768,6.4768,979.00,973.63,984.86,980.47
6.4768,6.4768,973.14,973.63,959.96,973.63
6.5219,6.5219,973.14,980.96,-1000.00,973.63
6.5219,6.5219,973.14,944.82,920.90,973.63
6.5219,6.5219,985.35,959.96,803.71,983.89
6.5219,6.5219,929.69,-960.45,885.25,937.01
6.5219,6.5219,990.23,-234.38,833.01,976.56
6.5219,6.5219,968.75,-1000.00,881.84,-996.58
6.5219,6.5219,-415.04,-936.52,-406.74,-335.94
6.5219,6.5219,-1000.00,-1000.00,-1000.00,-1000.00
6.5219,6.5219,-927.25,-1000.00,-924.32,-930.66
6.5219,6.5219,-1000.00,-1000.00,-999.51,-1000.00
6.5219,6.5219,-1000.00,-1000.00,-1000.00,-1000.00
6.5219,6.5219,-1000.00,-1000.00,-1000.00,-1000.00
6.5698,6.5698,-1000.00,-957.03,-739.75,-1000.00
6.5698,6.5698,-1000.00,-1000.00,-896.48,-1000.00
6.5698,6.5698,-926.27,-996.09,-1000.00,-926.27
6.5698,6.5698,-1000.00,388.18,179.20,-1000.00
6.5698,6.5698,-579.59,-888.67,-912.11,-582.03
6.5698,6.5698,871.09,900.39,918.95,870.61
6.5698,6.5698,-976.07,983.89,971.19,-975.10
6.5698,6.5698,916.50,973.63,976.07,916.99
6.5698,6.5698,989.26,973.63,968.26,989.75
6.5698,6.5698,973.14,974.12,978.03,973.63
6.5698,6.5698,973.14,979.00,979.98,973.63
6.5698,6.5698,975.10,953.13,834.96,975.59
6.6220,6.6220,967.77,946.29,889.16,970.70
6.6220,6.6220,922.36,-939.94,948.24,919.92
6.6220,6.6220,-914.06,-112.30,-952.15,-909.67
6.6220,6.6220,143.07,-1000.00,14.16,183.11
6.6220,6.6220,-1000.00,-950.68,-1000.00,-1000.00
6.6220,6.6220,-984.86,-993.65,-964.36,-990.23
6.6220,6.6220,-975.59,-1000.00,-981.93,-972.66
6.6220,6.6220,-1000.00,-1000.00,-1000.00,-1000.00
6.6220,6.6220,-1000.00,-1000.00,-1000.00,-1000.00
6.6220,6.6220,-1000.00,-994.14,-1000.00,-1000.00
6.6220,6.6220,-1000.00,-951.66,-927.73,-1000.00
6.6220,6.6220,-942.38,-1000.00,-1000.00,-942.38
6.6591,6.6591,-1000.00,-147.95,-493.65,-1000.00
6.6591,6.6591,-891.11,-966.80,890.63,-891.11
6.6591,6.6591,569.34,955.08,-987.30,569.82
6.6591,6.6591,-907.23,950.20,924.80,-906.74
6.6591,6.6591,897.95,979.98,974.12,898.93
6.6591,6.6591,988.77,973.63,966.80,989.75
6.6591,6.6591,972.66,973.63,972.66,973.63
6.6591,6.6591,973.14,988.28,989.75,973.63
6.6591,6.6591,973.14,922.36,902.83,973.63
6.6591,6.6591,990.72,-990.23,972.66,991.21
6.6591,6.6591,903.81,918.95,878.91,908.20
6.6591,6.6591,-937.01,-510.74,518.55,-948.73
6.7023,6.7023,729.00,-1000.00,450.20,778.32
6.7023,6.7023,-756.84,-925.29,-715.82,-703.61
6.7023,6.7023,-1000.00,-1000.00,-1000.00,-1000.00
6.7023,6.7023,-931.15,-1000.00,-931.64,-928.71
6.7023,6.7023,-1000.00,-1000.00,-1000.00,-1000.00
6.7023,6.7023,-1000.00,-1000.00,-1000.00,-1000.00
6.7024,6.7024,-1000.00,-1000.00,-979.98,-1000.00
6.7024,6.7024,-1000.00,-936.52,-815.92,-1000.00
6.7024,6.7024,-942.38,-1000.00,-1000.00,-945.80
6.7024,6.7024,-1000.00,-827.15,-905.76,-1000.00
6.7024,6.7024,-891.11,652.83,567.87,-915.53
6.7024,6.7024,569.34,-920.41,-907.23,530.76
6.7495,6.7495,-907.71,900.88,898.93,-902.34
6.7495,6.7495,897.95,991.21,989.26,898.44
6.7495,6.7495,988.77,973.63,977.54,988.28
6.7495,6.7495,973.14,973.63,960.94,973.63
6.7495,6.7495,973.14,975.59,-994.63,973.63
6.7495,6.7495,990.23,970.21,901.37,991.21
6.7495,6.7495,899.90,920.41,761.23,907.23
6.7495,6.7495,-921.39,-910.64,-930.18,-946.78
6.7495,6.7495,652.34,172.85,431.64,771.97
6.7495,6.7495,-827.64,-1000.00,-894.53,-710.45
6.7495,6.7495,-1000.00,-988.77,-1000.00,-1000.00
6.7495,6.7495,-936.52,-985.84,-948.24,-929.20
6.7924,6.7924,-1000.00,-963.38,-992.19,-1000.00
6.7924,6.7924,-1000.00,-1000.00,-975.10,-1000.00
6.7924,6.7924,-935.06,-987.30,-978.52,-937.01
6.7924,6.7924,-1000.00,404.79,-1000.00,-1000.00
6.7924,6.7924,-386.23,-890.14,82.52,-356.93
6.7924,6.7924,954.10,900.39,-918.95,964.84
6.7924,6.7924,991.21,984.86,926.76,986.82
6.7924,6.7924,931.64,973.63,972.66,934.08
6.7924,6.7924,984.38,973.63,951.66,984.38
6.7924,6.7924,976.56,981.45,-974.12,975.59
6.7924,6.7924,961.91,943.85,859.38,971.19
6.7924,6.7924,931.64,962.40,602.54,919.43
6.8378,6.8378,-922.36,-965.82,-964.84,-909.67
6.8378,6.8378,35.16,-250.49,-8.79,183.11
6.8378,6.8378,-1000.00,-1000.00,-1000.00,-1000.00
6.8378,6.8378,-969.73,-935.55,-961.91,-990.23
6.8378,6.8378,-983.40,-1000.00,-984.38,-972.66
6.8378,6.8378,-1000.00,-971.68,-974.12,-1000.00
6.8378,6.8378,-1000.00,-986.82,-979.49,-1000.00
6.8378,6.8378,-934.08,-1000.00,-966.31,-933.11
6.8378,6.8378,-1000.00,209.47,-1000.00,-1000.00
6.8378,6.8378,-406.25,-886.72,-57.62,-418.46
6.8378,6.8378,946.78,909.67,-945.80,942.38
6.8378,6.8378,993.65,975.59,931.64,996.58
6.8971,6.8971,929.69,973.63,941.89,929.69
6.8971,6.8971,984.86,973.63,956.54,985.84
6.8971,6.8971,973.63,978.52,-982.91,974.12
6.8971,6.8971,979.49,956.54,906.25,981.45
6.8971,6.8971,907.71,940.92,542.48,907.23
6.8971,6.8971,-904.79,-932.13,-987.30,-903.32
6.8971,6.8971,357.91,-60.55,239.75,379.39
6.8971,6.8971,-981.45,-1000.00,-1000.00,-974.12
6.8971,6.8971,-1000.00,-957.03,-991.21,-1000.00
6.8971,6.8971,-958.98,-997.07,-969.24,-957.52
6.8971,6.8971,-1000.00,-976.07,-975.10,-1000.00
6.8971,6.8971,-1000.00,-984.38,-988.28,-1000.00
6.9421,6.9421,-926.27,-1000.00,-950.68,-926.76
6.9421,6.9421,-1000.00,193.36,-1000.00,-1000.00
6.9421,6.9421,-633.79,-887.21,-266.60,-639.65
6.9421,6.9421,834.96,910.64,992.68,831.05
6.9421,6.9421,-964.84,974.61,960.45,-962.89
6.9421,6.9421,912.11,973.63,921.88,912.60
6.9421,6.9421,989.75,973.63,959.96,990.23
6.9421,6.9421,972.66,975.59,-986.82,973.63
6.9421,6.9421,988.77,970.21,934.08,990.23
6.9421,6.9421,897.95,920.41,482.42,898.93
6.9421,6.9421,-907.71,-911.13,982.42,-910.64
6.9421,6.9421,568.85,171.39,473.14,591.80
6.9875,6.9875,-891.11,-1000.00,-978.52,-874.02
6.9876,6.9876,-1000.00,-988.77,-1000.00,-1000.00
6.9876,6.9876,-942.38,-973.14,-955.57,-940.92
6.9876,6.9876,-1000.00,-1000.00,-975.10,-1000.00
6.9876,6.9876,-1000.00,-926.27,-992.19,-1000.00
6.9876,6.9876,-931.15,-1000.00,-939.94,-931.15
6.9876,6.9876,-1000.00,-623.54,-1000.00,-1000.00
6.9876,6.9876,-756.84,843.26,-491.70,-750.98
6.9876,6.9876,729.00,-966.31,906.74,734.86
6.9876,6.9876,-937.50,913.57,991.21,-937.99
6.9876,6.9876,903.81,990.72,889.65,904.79
6.9876,6.9876,990.72,973.63,963.87,991.21
7.0324,7.0324,972.66,974.12,-988.77,973.63
7.0324,7.0324,990.23,981.45,952.15,991.21
7.0324,7.0324,899.90,907.23,437.50,903.81
7.0324,7.0324,-921.39,-903.32,943.36,-933.59
7.0324,7.0324,652.34,379.39,659.67,714.84
7.0324,7.0324,-827.64,-974.12,-893.55,-770.51
7.0324,7.0324,-1000.00,-1000.00,-1000.00,-1000.00
7.0324,7.0324,-936.52,-957.52,-943.36,-932.13
7.0324,7.0324,-1000.00,-1000.00,-1000.00,-1000.00
7.0324,7.0324,-1000.00,-936.04,-1000.00,-1000.00
7.0324,7.0324,-936.52,-1000.00,-932.62,-936.52
7.0324,7.0324,-1000.00,-826.17,-1000.00,-1000.00
7.0773,7.0773,-827.64,654.30,-652.83,-827.15
7.0773,7.0773,652.34,-920.90,815.43,652.83
7.0773,7.0773,-921.39,900.88,-977.54,-920.41
7.0773,7.0773,899.90,991.21,869.63,900.88
7.0773,7.0773,990.23,973.63,970.70,991.21
7.0774,7.0774,972.66,973.63,-998.54,973.63
7.0774,7.0774,990.72,989.75,976.07,990.72
7.0774,7.0774,903.81,898.93,493.16,907.71
7.0774,7.0774,-937.50,-906.74,918.46,-949.22
7.0774,7.0774,729.00,569.34,753.91,780.76
7.0774,7.0774,-756.84,-891.11,-820.31,-701.17
7.0774,7.0774,-1000.00,-1000.00,-1000.00,-1000.00
7.1274,7.1274,-931.15,-942.38,-937.01,-928.71
7.1274,7.1274,-1000.00,-1000.00,-1000.00,-1000.00
7.1274,7.1274,-1000.00,-942.38,-1000.00,-1000.00
7.1274,7.1274,-942.38,-1000.00,-936.04,-942.38
7.1274,7.1274,-1000.00,-891.11,-1000.00,-1000.00
7.1274,7.1274,-891.11,569.82,-770.51,-891.11
7.1275,7.1275,569.34,-906.74,720.70,569.34
7.1275,7.1275,-907.71,898.93,-951.17,-906.74
7.1275,7.1275,897.95,989.75,836.91,898.93
7.1275,7.1275,988.77,973.63,967.29,989.75
7.1275,7.1275,973.14,973.63,994.14,973.63
7.1275,7.1275,990.23,991.21,997.56,990.23
7.1687,7.1687,909.67,902.83,528.32,915.53
7.1687,7.1687,-956.54,-928.71,862.79,-972.17
7.1687,7.1687,805.66,691.41,851.56,864.26
7.1687,7.1687,-671.88,-791.99,-720.21,-596.68
7.1688,7.1688,-1000.00,-1000.00,-1000.00,-1000.00
7.1688,7.1688,-927.25,-933.59,-932.62,-925.78
7.1688,7.1688,-1000.00,-1000.00,-1000.00,-1000.00
7.1688,7.1688,-1000.00,-944.82,-1000.00,-1000.00
7.1688,7.1688,-942.38,-1000.00,-940.43,-942.38
7.1688,7.1688,-1000.00,-910.16,-1000.00,-1000.00
7.1688,7.1688,-891.11,539.55,-831.54,-891.11
7.1688,7.1688,569.34,-902.83,656.74,569.82
7.2147,7.2147,-907.71,898.44,-933.59,-906.74
7.2147,7.2147,897.95,988.77,804.20,898.93
7.2147,7.2147,988.77,973.63,960.45,989.75
7.2148,7.2148,973.14,973.63,987.79,973.63
7.2148,7.2148,989.26,991.21,-993.16,989.75
7.2148,7.2148,915.04,905.76,651.37,916.02
7.2148,7.2148,-973.14,-941.41,872.07,-972.17
7.2148,7.2148,863.28,749.02,877.93,864.26
7.2148,7.2148,-596.68,-735.35,-661.13,-596.68
7.2148,7.2148,-1000.00,-1000.00,-1000.00,-1000.00
7.2148,7.2148,-925.78,-930.18,-928.22,-925.78
7.2148,7.2148,-1000.00,-1000.00,-1000.00,-1000.00
7.2741,7.2741,-1000.00,-942.38,-1000.00,-1000.00
7.2741,7.2741,-942.38,-1000.00,-940.92,-942.38
7.2741,7.2741,-1000.00,-891.11,-1000.00,-1000.00
7.2741,7.2741,-891.11,569.82,-869.63,-891.11
7.2741,7.2741,568.85,-906.74,609.38,569.82
7.2742,7.2742,-907.23,898.93,-918.95,-907.23
7.2742,7.2742,897.95,989.75,810.55,898.44
7.2742,7.2742,988.77,973.63,960.94,989.75
7.2742,7.2742,973.14,973.63,979.49,973.63
7.2742,7.2742,989.26,990.23,-979.98,989.75
7.2742,7.2742,915.04,914.06,700.20,916.02
7.2742,7.2742,-972.66,-966.31,841.80,-972.17
7.3174,7.3174,863.28,842.77,904.79,864.26
7.3174,7.3174,-596.68,-624.02,-616.21,-596.68
7.3174,7.3174,-1000.00,-1000.00,-1000.00,-1000.00
7.3174,7.3174,-925.78,-926.27,-925.78,-925.78
7.3174,7.3174,-1000.00,-1000.00,-1000.00,-1000.00
7.3174,7.3174,-1000.00,-1000.00,-1000.00,-1000.00
7.3174,7.3174,-1000.00,-1000.00,-987.79,-1000.00
7.3174,7.3174,-1000.00,-1000.00,-1000.00,-1000.00
7.3174,7.3174,-1000.00,-1000.00,-942.38,-1000.00
7.3174,7.3174,-942.38,-927.25,-779.79,-942.38
7.3174,7.3174,-1000.00,-1000.00,-1000.00,-1000.00
7.3174,7.3174,-891.11,-664.55,-801.27,-891.11
7.3651,7.3651,568.85,812.01,685.55,569.34
7.3651,7.3651,-907.71,-957.52,-929.20,-906.74
7.3651,7.3651,897.95,910.64,908.20,898.93
7.3651,7.3651,988.77,991.21,972.17,989.75
7.3651,7.3651,973.14,973.63,953.13,973.63
7.3651,7.3651,973.14,973.63,971.19,973.63
7.3651,7.3651,982.42,987.79,-1000.00,980.47
7.3651,7.3651,937.50,923.83,886.72,946.29
7.3651,7.3651,972.66,-993.16,900.39,957.52
7.3651,7.3651,-989.75,927.25,999.51,-955.08
7.3651,7.3651,-318.36,-495.61,-354.49,-218.26
7.3651,7.3651,-1000.00,-1000.00,-1000.00,-1000.00
7.4098,7.4098,-931.15,-925.78,-934.57,-937.50
7.4098,7.4098,-1000.00,-1000.00,-999.51,-1000.00
7.4098,7.4098,-1000.00,-953.13,-991.21,-1000.00
7.4098,7.4098,-986.33,-1000.00,-962.89,-984.86
7.4098,7.4098,-963.38,-970.70,-1000.00,-964.84
7.4098,7.4098,-1000.00,437.01,-1000.00,-1000.00
7.4098,7.4098,-10.74,-892.58,324.71,6.84
7.4098,7.4098,-929.20,899.41,-886.72,-925.29
7.4098,7.4098,934.57,985.84,895.02,933.11
7.4098,7.4098,959.96,973.63,972.66,961.43
7.4098,7.4098,976.56,973.63,963.87,977.05
7.4099,7.4099,979.49,985.84,-989.26,978.52
7.4548,7.4548,945.80,930.66,861.82,955.08
7.4549,7.4549,956.54,991.21,818.36,943.36
7.4549,7.4549,-955.57,969.24,-961.91,-936.04
7.4549,7.4549,-218.26,-414.55,-251.46,-84.96
7.4549,7.4549,-1000.00,-1000.00,-1000.00,-1000.00
7.4549,7.4549,-937.50,-927.25,-940.43,-953.61
7.4549,7.4549,-1000.00,-1000.00,-997.56,-992.19
7.4549,7.4549,-1000.00,-1000.00,-977.54,-1000.00
7.4549,7.4549,-1000.00,-1000.00,-989.26,-1000.00
7.4549,7.4549,-1000.00,-1000.00,-1000.00,-1000.00
7.4549,7.4549,-1000.00,-1000.00,-1000.00,-1000.00
7.4549,7.4549,-972.66,-942.38,-718.26,-973.14
7.5001,7.5001,-985.35,-1000.00,-898.93,-984.38
7.5001,7.5001,-1000.00,-891.11,-996.09,-1000.00
7.5001,7.5001,198.73,569.82,477.05,191.41
7.5001,7.5001,-888.18,-907.23,-902.34,-887.70
7.5001,7.5001,909.67,898.93,904.30,910.64
7.5001,7.5001,974.12,989.75,975.59,974.12
7.5001,7.5001,973.14,973.63,959.96,973.63
7.5001,7.5001,973.14,973.63,948.73,973.63
7.5001,7.5001,973.14,973.63,-987.30,973.63
7.5001,7.5001,990.72,988.77,948.73,991.70
7.5001,7.5001,903.32,899.41,437.50,904.79
7.5001,7.5001,-935.55,-906.25,944.34,-936.52
7.5441,7.5441,720.21,551.27,714.84,729.49
7.5441,7.5441,-764.65,-898.93,-854.00,-756.35
7.5441,7.5441,-1000.00,-1000.00,-1000.00,-1000.00
7.5441,7.5441,-932.13,-943.85,-939.45,-931.15
7.5441,7.5441,-1000.00,-1000.00,-1000.00,-1000.00
7.5441,7.5441,-1000.00,-931.15,-1000.00,-1000.00
7.5441,7.5441,-936.52,-1000.00,-933.11,-936.52
7.5441,7.5441,-1000.00,-751.46,-1000.00,-1000.00
7.5441,7.5441,-827.64,734.86,-673.34,-827.15
7.5441,7.5441,652.34,-937.50,801.76,652.83
7.5441,7.5441,-921.39,904.79,-974.12,-920.90
7.5441,7.5441,900.39,991.70,868.16,900.39
7.5868,7.5868,990.23,973.63,968.75,990.72
7.5868,7.5868,973.14,973.63,-999.02,973.63
7.5868,7.5868,990.72,990.72,976.07,991.21
7.5868,7.5868,905.76,900.39,444.34,909.67
7.5868,7.5868,-943.36,-916.02,888.67,-954.10
7.5868,7.5868,753.91,625.49,794.43,800.29
7.5868,7.5868,-729.49,-848.14,-793.95,-679.69
7.5868,7.5868,-1000.00,-1000.00,-1000.00,-1000.00
7.5868,7.5868,-930.18,-938.48,-936.04,-927.73
7.5868,7.5868,-1000.00,-1000.00,-1000.00,-1000.00
7.5868,7.5868,-1000.00,-1000.00,-985.35,-1000.00
7.5868,7.5868,-1000.00,-1000.00,-1000.00,-1000.00
7.6497,7.6497,-1000.00,-1000.00,-1000.00,-1000.00
7.6497,7.6497,-1000.00,-991.70,-998.54,-1000.00
7.6497,7.6497,-931.15,-955.08,-918.46,-935.55
7.6497,7.6497,-1000.00,-1000.00,-1000.00,-1000.00
7.6497,7.6497,-756.84,-104.98,-464.84,-817.38
7.6497,7.6497,729.00,-955.08,905.27,663.57
7.6497,7.6497,-937.01,948.73,-992.19,-922.85
7.6497,7.6497,903.81,953.61,928.71,901.37
7.6497,7.6497,990.72,979.49,952.64,991.21
7.6497,7.6497,973.14,973.63,955.57,973.63
7.6497,7.6497,973.14,973.63,975.10,973.63
7.6497,7.6497,989.26,990.23,-995.61,988.28
7.6951,7.6951,915.04,915.53,851.07,921.88
7.6951,7.6951,-973.14,-972.17,946.29,-988.77
7.6951,7.6951,863.28,864.26,891.11,913.57
7.6951,7.6951,-596.68,-596.19,-580.57,-518.55
7.6951,7.6951,-1000.00,-1000.00,-1000.00,-1000.00
7.6951,7.6951,-925.78,-925.78,-928.22,-925.29
7.6951,7.6951,-1000.00,-1000.00,-1000.00,-1000.00
7.6951,7.6951,-1000.00,-952.64,-1000.00,-1000.00
7.6951,7.6951,-957.03,-1000.00,-946.29,-955.57
7.6951,7.6951,-1000.00,-965.82,-1000.00,-1000.00
7.6951,7.6951,-996.09,445.80,-905.76,-986.82
7.6951,7.6951,387.70,-893.07,546.39,405.76
7.7396,7.7396,-889.16,899.41,-897.46,-890.14
7.7396,7.7396,899.90,985.84,854.98,899.90
7.7396,7.7396,982.91,973.63,957.03,984.38
7.7396,7.7396,973.14,973.63,979.00,973.63
7.7397,7.7397,987.30,989.75,996.58,987.79
7.7397,7.7397,921.88,915.53,876.95,924.32
7.7397,7.7397,-991.70,-972.17,966.31,-994.14
7.7397,7.7397,919.92,864.26,903.81,929.20
7.7397,7.7397,-508.30,-596.68,-550.29,-491.21
7.7397,7.7397,-1000.00,-1000.00,-1000.00,-1000.00
7.7397,7.7397,-925.29,-925.78,-929.69,-925.78
7.7397,7.7397,-1000.00,-1000.00,-1000.00,-1000.00
7.7845,7.7845,-1000.00,-1000.00,-985.35,-1000.00
7.7845,7.7845,-1000.00,-1000.00,-982.91,-1000.00
7.7845,7.7845,-1000.00,-1000.00,-1000.00,-1000.00
7.7845,7.7845,-1000.00,-1000.00,-980.47,-1000.00
7.7846,7.7846,-949.22,-941.89,-614.26,-950.68
7.7846,7.7846,-1000.00,-1000.00,-969.73,-1000.00
7.7846,7.7846,-944.82,-884.28,-935.06,-955.08
7.7846,7.7846,484.86,578.61,592.77,466.80
7.7846,7.7846,-896.97,-908.20,-912.60,-895.02
7.7846,7.7846,897.95,898.93,898.93,898.93
7.7846,7.7846,986.82,989.75,989.75,986.82
7.7846,7.7846,973.14,973.63,979.49,973.63
7.8289,7.8289,973.14,973.63,954.59,973.63
7.8289,7.8289,973.63,978.03,-983.89,974.12
7.8290,7.8290,980.47,958.50,878.91,986.33
7.8290,7.8290,906.25,937.50,673.34,901.86
7.8290,7.8290,-904.30,-927.73,-915.04,-905.27
7.8290,7.8290,378.91,-27.83,260.74,493.16
7.8290,7.8290,-974.12,-1000.00,-1000.00,-924.32
7.8290,7.8290,-1000.00,-960.94,-1000.00,-1000.00
7.8290,7.8290,-957.52,-987.79,-965.82,-948.73
7.8290,7.8290,-1000.00,-1000.00,-976.07,-1000.00
7.8290,7.8290,-1000.00,-942.38,-986.82,-1000.00
7.8290,7.8290,-925.78,-1000.00,-952.15,-925.78
7.8717,7.8717,-1000.00,-888.67,-1000.00,-1000.00
7.8718,7.8718,-596.68,572.75,-249.51,-596.68
7.8718,7.8718,863.28,-907.23,994.63,864.26
7.8718,7.8718,-973.14,898.93,967.77,-972.17
7.8718,7.8718,915.04,989.75,942.87,915.53
7.8718,7.8718,989.26,973.63,957.03,990.23
7.8718,7.8718,973.63,976.56,-975.10,973.63
7.8718,7.8718,980.96,967.29,879.88,989.75
7.8718,7.8718,905.76,924.80,541.50,898.44
7.8718,7.8718,-904.30,-914.55,-947.27,-906.74
7.8718,7.8718,396.00,122.56,391.11,569.82
7.8718,7.8718,-966.80,-1000.00,-995.12,-891.11
7.9200,7.9200,-1000.00,-981.93,-1000.00,-1000.00
7.9200,7.9200,-956.05,-977.05,-959.47,-942.38
7.9201,7.9201,-1000.00,-1000.00,-986.82,-1000.00
7.9201,7.9201,-1000.00,-1000.00,-989.75,-1000.00
7.9201,7.9201,-1000.00,-1000.00,-999.02,-1000.00
7.9201,7.9201,-1000.00,-1000.00,-1000.00,-1000.00
7.9201,7.9201,-1000.00,-957.03,-900.39,-1000.00
7.9201,7.9201,-930.66,-1000.00,-892.09,-925.78
7.9201,7.9201,-1000.00,-996.09,-1000.00,-1000.00
7.9201,7.9201,-483.40,388.18,115.23,-596.68
7.9201,7.9201,913.09,-888.67,-921.39,864.26
7.9201,7.9201,-992.68,900.39,931.64,-972.17
7.9771,7.9771,923.83,983.89,958.01,915.53
7.9771,7.9771,986.82,973.63,911.62,990.23
7.9771,7.9771,973.14,973.63,950.68,973.63
7.9771,7.9771,973.14,973.63,983.89,973.63
7.9772,7.9772,989.26,991.21,-992.68,990.23
7.9772,7.9772,915.04,909.67,618.65,916.02
7.9772,7.9772,-973.14,-954.10,855.47,-972.17
7.9772,7.9772,863.28,800.78,901.37,864.26
7.9773,7.9773,-596.68,-679.69,-641.60,-596.68
7.9773,7.9773,-1000.00,-1000.00,-1000.00,-1000.00
7.9773,7.9773,-925.78,-927.73,-926.76,-925.78
7.9773,7.9773,-1000.00,-1000.00,-1000.00,-1000.00
8.0247,8.0247,-1000.00,-942.38,-1000.00,-1000.00
8.0247,8.0247,-942.38,-1000.00,-941.41,-942.38
8.0247,8.0247,-1000.00,-891.11,-1000.00,-1000.00
8.0247,8.0247,-891.11,569.82,-877.93,-891.11
8.0247,8.0247,569.34,-906.74,600.10,569.82
8.0247,8.0247,-907.71,898.93,-917.97,-906.74
8.0247,8.0247,897.95,989.75,804.20,898.93
8.0247,8.0247,988.77,973.63,959.47,989.75
8.0247,8.0247,973.14,973.63,978.03,973.63
8.0247,8.0247,989.26,990.23,-978.52,990.23
8.0247,8.0247,915.04,916.02,666.02,916.02
8.0247,8.0247,-972.66,-972.17,817.38,-972.17
8.0697,8.0697,863.28,864.26,916.50,864.26
8.0697,8.0697,-596.68,-596.19,-612.30,-596.68
8.0697,8.0697,-1000.00,-1000.00,-1000.00,-1000.00
8.0697,8.0697,-925.78,-925.78,-925.78,-925.78
8.0697,8.0697,-1000.00,-1000.00,-1000.00,-1000.00
8.0697,8.0697,-1000.00,-1000.00,-1000.00,-1000.00
8.0697,8.0697,-1000.00,-1000.00,-984.86,-1000.00
8.0697,8.0697,-1000.00,-1000.00,-1000.00,-1000.00
8.0697,8.0697,-1000.00,-1000.00,-936.52,-1000.00
8.0697,8.0697,-942.38,-925.78,-730.47,-942.38
8.0697,8.0697,-1000.00,-1000.00,-1000.00,-1000.00
8.0698,8.0698,-891.11,-596.68,-777.34,-891.11
8.1142,8.1142,568.85,864.26,719.24,569.34
8.1142,8.1142,-907.71,-972.17,-937.01,-906.74
8.1142,8.1142,897.95,916.02,911.62,898.44
8.1142,8.1142,988.77,990.23,964.36,989.75
8.1142,8.1142,973.14,973.63,944.82,973.63
8.1143,8.1143,973.14,973.63,972.66,973.63
8.1143,8.1143,982.42,987.79,-999.51,980.96
8.1143,8.1143,937.50,924.32,882.32,944.82
8.1143,8.1143,972.66,-994.63,894.04,959.96
8.1143,8.1143,-989.75,930.18,-998.05,-960.94
8.1143,8.1143,-318.36,-489.75,-354.00,-235.35
8.1143,8.1143,-1000.00,-1000.00,-1000.00,-1000.00
8.1566,8.1566,-931.15,-925.78,-933.11,-936.52
8.1566,8.1566,-1000.00,-1000.00,-1000.00,-1000.00
8.1566,8.1566,-1000.00,-1000.00,-994.14,-1000.00
8.1566,8.1566,-986.33,-935.06,-966.31,-986.33
8.1566,8.1566,-963.38,-1000.00,-1000.00,-963.38
8.1566,8.1566,-1000.00,-384.28,-1000.00,-1000.00
8.1566,8.1566,-10.74,955.08,272.46,-10.25
8.1566,8.1566,-929.69,991.21,-887.21,-928.71
8.1566,8.1566,934.57,932.13,891.11,935.06
8.1566,8.1566,959.47,984.86,960.94,960.45
8.1566,8.1566,976.56,973.63,965.33,977.54
8.1566,8.1566,979.49,984.86,-989.26,977.54
8.2019,8.2019,945.80,934.08,860.35,958.98
8.2019,8.2019,956.54,982.91,805.66,937.01
8.2019,8.2019,-955.57,987.79,-951.17,-926.76
8.2019,8.2019,-218.26,-371.58,-211.43,-21.00
8.2020,8.2020,-1000.00,-1000.00,-1000.00,-1000.00
8.2020,8.2020,-937.50,-929.20,-943.36,-961.43
8.2020,8.2020,-1000.00,-1000.00,-996.58,-987.30
8.2020,8.2020,-1000.00,-1000.00,-982.42,-1000.00
8.2020,8.2020,-1000.00,-1000.00,-991.70,-1000.00
8.2020,8.2020,-1000.00,-1000.00,-1000.00,-1000.00
8.2020,8.2020,-1000.00,-1000.00,-1000.00,-1000.00
8.2020,8.2020,-991.21,-942.38,-763.18,-998.05
8.2495,8.2495,-956.05,-1000.00,-910.64,-946.29
8.2495,8.2495,-1000.00,-891.11,-986.33,-1000.00
8.2495,8.2495,-99.12,569.82,478.52,-209.96
8.2495,8.2495,-954.10,-906.74,-901.86,-983.89
8.2495,8.2495,947.27,898.93,903.81,963.38
8.2495,8.2495,953.13,989.75,975.59,945.80
8.2495,8.2495,978.03,973.63,960.94,980.96
8.2495,8.2495,972.66,973.63,948.24,973.63
8.2495,8.2495,973.14,973.63,-988.28,973.63
8.2495,8.2495,990.72,989.26,945.80,991.21
8.2495,8.2495,902.83,898.93,433.59,904.30
8.2495,8.2495,-934.08,-906.74,944.34,-937.01
8.2947,8.2947,712.89,559.57,721.68,729.49
8.2947,8.2947,-771.48,-895.02,-850.10,-756.35
8.2947,8.2947,-1000.00,-1000.00,-1000.00,-1000.00
8.2947,8.2947,-932.62,-943.36,-939.45,-931.15
8.2947,8.2947,-1000.00,-1000.00,-1000.00,-1000.00
8.2947,8.2947,-1000.00,-1000.00,-986.82,-1000.00
8.2947,8.2947,-1000.00,-1000.00,-1000.00,-1000.00
8.2947,8.2947,-1000.00,-1000.00,-1000.00,-1000.00
8.2947,8.2947,-1000.00,-973.14,-992.19,-1000.00
8.2947,8.2947,-936.04,-984.38,-935.06,-939.45
8.2947,8.2947,-1000.00,-1000.00,-1000.00,-1000.00
8.2947,8.2947,-819.82,191.41,-278.81,-858.40
8.3546,8.3546,660.64,-887.21,974.61,612.30
8.3546,8.3546,-922.85,910.64,981.45,-914.06
8.3546,8.3546,900.88,974.61,938.96,899.90
8.3547,8.3547,990.23,973.63,914.06,990.23
8.3547,8.3547,972.66,973.63,947.75,973.63
8.3547,8.3547,973.14,973.63,976.56,973.63
8.3547,8.3547,989.26,990.23,-984.86,989.75
8.3547,8.3547,915.04,916.02,779.79,915.53
8.3547,8.3547,-973.14,-972.17,886.23,-972.17
8.3547,8.3547,863.28,864.26,894.04,864.26
8.3547,8.3547,-596.68,-596.19,-604.00,-596.68
8.3547,8.3547,-1000.00,-1000.00,-1000.00,-1000.00
8.3996,8.3996,-925.78,-925.78,-925.78,-925.78
8.3996,8.3996,-1000.00,-1000.00,-1000.00,-1000.00
8.3996,8.3996,-1000.00,-944.82,-1000.00,-1000.00
8.3996,8.3996,-949.71,-1000.00,-942.38,-948.73
8.3996,8.3996,-1000.00,-910.64,-1000.00,-1000.00
8.3996,8.3996,-947.27,539.06,-893.07,-941.41
8.3996,8.3996,480.96,-902.83,571.29,490.72
8.3996,8.3996,-896.48,898.93,-903.32,-897.46
8.3996,8.3996,897.95,988.77,838.87,898.44
8.3996,8.3996,986.33,973.63,958.98,987.79
8.3996,8.3996,973.14,973.63,978.03,973.63
8.3996,8.3996,989.26,990.23,-994.63,990.23
8.4418,8.4418,915.04,916.02,835.45,915.53
8.4418,8.4418,-973.14,-972.17,935.06,-972.17
8.4418,8.4418,863.28,864.26,882.81,864.26
8.4419,8.4419,-596.68,-596.68,-599.61,-596.68
8.4419,8.4419,-1000.00,-1000.00,-1000.00,-1000.00
8.4419,8.4419,-925.78,-925.78,-926.76,-925.78
8.4419,8.4419,-1000.00,-1000.00,-1000.00,-1000.00
8.4419,8.4419,-1000.00,-1000.00,-998.05,-1000.00
8.4419,8.4419,-1000.00,-1000.00,-985.35,-1000.00
8.4419,8.4419,-1000.00,-1000.00,-1000.00,-1000.00
8.4419,8.4419,-1000.00,-1000.00,-969.73,-1000.00
8.4419,8.4419,-1000.00,-936.52,-706.54,-1000.00
8.4867,8.4867,-949.71,-1000.00,-1000.00,-952.15
8.4867,8.4867,-1000.00,-827.15,-907.71,-1000.00
8.4867,8.4867,-947.27,652.83,595.70,-964.36
8.4867,8.4867,480.47,-920.41,-911.62,449.22
8.4867,8.4867,-896.48,900.88,898.93,-893.55
8.4867,8.4867,897.95,991.21,989.75,898.93
8.4867,8.4867,986.33,973.63,977.54,985.84
8.4867,8.4867,973.14,973.63,961.43,973.63
8.4867,8.4867,973.14,975.59,-997.07,973.63
8.4867,8.4867,990.23,970.70,907.23,991.21
8.4867,8.4867,899.90,920.41,764.16,904.79
8.4867,8.4867,-919.43,-910.64,-915.53,-936.52
8.5346,8.5346,639.16,174.32,433.59,729.49
8.5346,8.5346,-837.40,-1000.00,-917.97,-756.35
8.5346,8.5346,-1000.00,-989.26,-1000.00,-1000.00
8.5346,8.5346,-937.50,-977.05,-947.75,-931.15
8.5346,8.5346,-1000.00,-993.16,-963.87,-1000.00
8.5346,8.5346,-1000.00,-963.87,-968.75,-1000.00
8.5346,8.5346,-934.08,-1000.00,-978.03,-935.06
8.5346,8.5346,-1000.00,-4.88,-1000.00,-1000.00
8.5346,8.5346,-406.25,-927.73,32.23,-388.67
8.5346,8.5346,946.78,934.57,-928.71,953.61
8.5346,8.5346,993.65,960.94,932.62,991.70
8.5346,8.5346,929.69,977.54,969.73,931.64
8.5797,8.5797,984.86,973.63,952.64,985.35
8.5797,8.5797,974.12,978.03,-974.61,974.61
8.5797,8.5797,975.59,957.03,858.40,981.45
8.5797,8.5797,912.60,940.43,602.05,906.74
8.5797,8.5797,-907.23,-931.15,-924.80,-903.32
8.5797,8.5797,281.74,-52.73,216.31,379.39
8.5797,8.5797,-1000.00,-1000.00,-1000.00,-974.12
8.5797,8.5797,-1000.00,-957.52,-993.65,-1000.00
8.5797,8.5797,-964.84,-989.75,-969.73,-957.52
8.5797,8.5797,-1000.00,-1000.00,-980.96,-1000.00
8.5797,8.5797,-1000.00,-1000.00,-991.21,-1000.00
8.5797,8.5797,-1000.00,-1000.00,-997.56,-1000.00
8.6245,8.6245,-1000.00,-1000.00,-1000.00,-1000.00
8.6246,8.6246,-1000.00,-949.71,-847.17,-1000.00
8.6246,8.6246,-1000.00,-1000.00,-874.02,-1000.00
8.6246,8.6246,-925.78,-947.27,-1000.00,-926.27
8.6246,8.6246,-1000.00,481.45,251.46,-1000.00
8.6246,8.6246,-596.68,-896.00,-899.41,-618.16
8.6246,8.6246,863.77,898.44,913.09,847.66
8.6246,8.6246,-973.14,987.30,972.66,-967.29
8.6246,8.6246,915.04,973.63,966.80,914.06
8.6246,8.6246,989.26,973.63,961.91,990.23
8.6246,8.6246,973.14,973.63,984.38,973.63
8.6246,8.6246,989.26,991.21,998.05,990.23
8.6690,8.6690,915.04,905.76,629.88,915.53
8.6690,8.6690,-973.14,-940.92,899.90,-972.17
8.6690,8.6690,863.28,747.56,880.86,864.26
8.6691,8.6691,-596.68,-737.30,-659.18,-596.19
8.6691,8.6691,-1000.00,-1000.00,-1000.00,-1000.00
8.6691,8.6691,-925.78,-930.18,-932.13,-925.78
8.6691,8.6691,-1000.00,-1000.00,-998.05,-1000.00
8.6691,8.6691,-1000.00,-927.25,-994.14,-1000.00
8.6691,8.6691,-942.38,-1000.00,-941.89,-942.38
8.6691,8.6691,-1000.00,-674.32,-1000.00,-1000.00
8.6691,8.6691,-891.11,804.69,-840.33,-891.11
8.6691,8.6691,569.34,-955.08,644.04,569.82
8.7120,8.7120,-907.71,910.16,-930.18,-906.74
8.7120,8.7120,897.95,991.21,824.22,898.93
8.7120,8.7120,988.77,973.63,965.33,989.75
8.7120,8.7120,973.14,973.63,984.86,973.63
8.7120,8.7120,989.26,991.21,-995.12,989.75
8.7120,8.7120,915.04,909.18,640.63,916.02
8.7120,8.7120,-973.14,-952.64,867.68,-972.17
8.7120,8.7120,863.28,794.43,897.95,864.26
8.7120,8.7120,-596.68,-686.04,-640.14,-596.68
8.7120,8.7120,-1000.00,-1000.00,-1000.00,-1000.00
8.7120,8.7120,-925.78,-927.73,-926.76,-925.78
8.7120,8.7120,-1000.00,-1000.00,-1000.00,-1000.00
8.7717,8.7717,-1000.00,-1000.00,-1000.00,-1000.00
8.7717,8.7717,-1000.00,-1000.00,-990.72,-1000.00
8.7717,8.7717,-1000.00,-1000.00,-1000.00,-1000.00
8.7717,8.7717,-1000.00,-1000.00,-951.66,-1000.00
8.7717,8.7717,-1000.00,-928.71,-808.11,-1000.00
8.7717,8.7717,-942.38,-1000.00,-1000.00,-942.38
8.7717,8.7717,-1000.00,-522.46,-721.68,-1000.00
8.7717,8.7717,-891.11,896.48,759.77,-891.11
8.7717,8.7717,569.34,-984.86,-945.31,569.82
8.7717,8.7717,-907.71,921.39,909.67,-906.74
8.7717,8.7717,897.95,988.28,981.45,898.93
8.7717,8.7717,988.77,973.63,964.36,989.75
8.8165,8.8165,973.14,973.63,975.10,973.63
8.8165,8.8165,977.05,983.89,981.45,975.59
8.8165,8.8165,958.50,936.04,945.31,971.19
8.8165,8.8165,935.55,978.52,941.89,919.92
8.8165,8.8165,-926.76,999.51,-956.05,-909.67
8.8165,8.8165,-16.60,-344.73,-107.42,183.11
8.8165,8.8165,-1000.00,-1000.00,-1000.00,-1000.00
8.8166,8.8166,-962.40,-930.18,-963.87,-990.23
8.8166,8.8166,-987.30,-1000.00,-973.63,-972.66
8.8166,8.8166,-1000.00,-957.03,-975.59,-1000.00
8.8166,8.8166,-973.14,-1000.00,-957.52,-973.14
8.8166,8.8166,-984.38,-994.14,-1000.00,-983.89
8.8646,8.8646,-1000.00,391.60,-981.45,-1000.00
8.8646,8.8646,190.92,-889.16,400.39,191.41
8.8647,8.8647,-888.18,900.39,-884.28,-887.21
8.8647,8.8647,910.16,984.38,870.12,910.64
8.8647,8.8647,973.63,973.63,949.22,974.12
8.8647,8.8647,973.14,973.63,974.61,974.12
8.8647,8.8647,982.42,988.28,999.51,982.42
8.8647,8.8647,937.50,922.85,886.23,940.43
8.8647,8.8647,972.66,-990.72,906.25,969.24
8.8647,8.8647,-989.75,920.41,994.63,-979.49
8.8647,8.8647,-318.36,-507.81,-371.09,-289.55
8.8647,8.8647,-1000.00,-1000.00,-1000.00,-1000.00
8.9095,8.9095,-931.15,-925.29,-932.13,-933.11
8.9095,8.9095,-1000.00,-1000.00,-1000.00,-1000.00
8.9095,8.9095,-1000.00,-1000.00,-987.79,-1000.00
8.9095,8.9095,-1000.00,-1000.00,-987.79,-1000.00
8.9095,8.9095,-1000.00,-1000.00,-1000.00,-1000.00
8.9095,8.9095,-1000.00,-1000.00,-1000.00,-1000.00
8.9095,8.9095,-1000.00,-942.38,-659.67,-1000.00
8.9095,8.9095,-986.33,-1000.00,-916.02,-986.33
8.9095,8.9095,-963.38,-891.11,-970.21,-963.38
8.9095,8.9095,-1000.00,569.82,540.53,-1000.00
8.9095,8.9095,-10.74,-906.74,-907.71,-10.25
8.9095,8.9095,-929.69,898.93,900.88,-928.71
8.9542,8.9542,934.57,989.75,983.40,935.06
8.9542,8.9542,959.47,973.63,970.21,960.45
8.9542,8.9542,976.56,973.63,956.54,977.05
8.9542,8.9542,973.14,973.63,-996.58,973.63
8.9542,8.9542,989.26,991.21,942.38,990.23
8.9542,8.9542,915.04,900.88,639.16,916.02
8.9542,8.9542,-973.14,-919.92,998.05,-972.17
8.9542,8.9542,863.28,650.39,789.06,863.77
8.9542,8.9542,-596.68,-829.10,-718.26,-596.68
8.9542,8.9542,-1000.00,-1000.00,-1000.00,-1000.00
8.9542,8.9542,-925.78,-936.52,-934.08,-925.78
8.9542,8.9542,-1000.00,-1000.00,-992.68,-1000.00
8.9990,8.9990,-1000.00,-926.76,-997.56,-1000.00
8.9990,8.9990,-931.15,-1000.00,-935.55,-931.15
8.9990,8.9990,-1000.00,-652.34,-1000.00,-1000.00
8.9990,8.9990,-756.84,821.29,-578.13,-756.35
8.9990,8.9990,729.00,-959.96,861.33,729.49
8.9990,8.9990,-937.50,911.62,-995.12,-936.52
8.9990,8.9990,903.81,990.72,883.30,904.30
8.9990,8.9990,990.72,973.63,961.43,991.21
8.9990,8.9990,973.14,973.63,-984.38,973.63
8.9990,8.9990,990.23,987.30,942.87,991.70
8.9990,8.9990,899.90,901.37,362.79,904.30
8.9990,8.9990,-921.39,-905.76,920.90,-936.52
9.0416,9.0416,652.34,511.23,711.91,729.49
9.0416,9.0416,-827.64,-916.50,-872.07,-756.84
9.0416,9.0416,-1000.00,-1000.00,-1000.00,-1000.00
9.0416,9.0416,-936.52,-947.27,-940.43,-931.15
9.0416,9.0416,-1000.00,-1000.00,-1000.00,-1000.00
9.0416,9.0416,-1000.00,-1000.00,-989.75,-1000.00
9.0416,9.0416,-1000.00,-1000.00,-1000.00,-1000.00
9.0416,9.0416,-1000.00,-1000.00,-1000.00,-1000.00
9.0416,9.0416,-1000.00,-977.54,-992.19,-1000.00
9.0416,9.0416,-1000.00,-977.05,-930.18,-1000.00
9.0416,9.0416,-941.89,-1000.00,-1000.00,-941.41
9.0416,9.0416,-1000.00,121.58,-318.85,-1000.00
9.0895,9.0895,-881.84,-901.86,962.40,-876.95
9.0895,9.0895,581.05,918.95,985.35,587.89
9.0895,9.0895,-909.67,969.73,936.52,-910.16
9.0895,9.0895,898.44,975.10,951.17,898.93
9.0895,9.0895,989.26,973.63,961.43,989.75
9.0895,9.0895,973.14,973.63,971.68,973.63
9.0895,9.0895,986.33,990.23,-988.28,984.86
9.0895,9.0895,925.78,916.02,809.57,934.08
9.0895,9.0895,999.51,-972.17,888.18,982.91
9.0895,9.0895,943.85,864.26,943.36,988.77
9.0895,9.0895,-461.91,-596.68,-508.79,-369.14
9.0895,9.0895,-1000.00,-1000.00,-1000.00,-1000.00
9.1498,9.1498,-926.27,-925.78,-926.27,-929.20
9.1498,9.1498,-1000.00,-1000.00,-1000.00,-1000.00
9.1498,9.1498,-1000.00,-942.38,-1000.00,-1000.00
9.1498,9.1498,-947.75,-1000.00,-942.38,-945.80
9.1498,9.1498,-1000.00,-891.11,-1000.00,-1000.00
9.1498,9.1498,-932.62,569.82,-893.07,-917.48
9.1498,9.1498,503.42,-906.74,571.29,527.83
9.1498,9.1498,-899.41,898.93,-903.81,-901.86
9.1498,9.1498,897.95,989.75,840.33,898.44
9.1498,9.1498,987.30,973.63,960.45,988.28
9.1498,9.1498,972.66,973.63,978.52,973.63
9.1498,9.1498,989.26,990.23,-993.65,990.23
9.1950,9.1950,915.04,915.53,833.98,915.53
9.1951,9.1951,-973.14,-972.17,933.59,-972.17
9.1951,9.1951,863.77,864.26,882.32,864.26
9.1951,9.1951,-596.68,-596.68,-600.59,-596.68
9.1951,9.1951,-1000.00,-1000.00,-1000.00,-1000.00
9.1951,9.1951,-925.78,-925.78,-926.76,-925.78
9.1951,9.1951,-1000.00,-1000.00,-1000.00,-1000.00
9.1951,9.1951,-1000.00,-1000.00,-1000.00,-1000.00
9.1951,9.1951,-1000.00,-1000.00,-982.42,-1000.00
9.1951,9.1951,-1000.00,-1000.00,-1000.00,-1000.00
9.1951,9.1951,-1000.00,-1000.00,-962.40,-1000.00
9.1951,9.1951,-1000.00,-936.52,-666.02,-1000.00
9.2400,9.2400,-957.03,-1000.00,-1000.00,-957.03
9.2400,9.2400,-1000.00,-827.15,-913.09,-1000.00
9.2400,9.2400,-996.09,652.83,597.17,-993.16
9.2401,9.2401,387.21,-920.41,-912.11,393.07
9.2401,9.2401,-889.65,900.88,899.41,-889.16
9.2401,9.2401,899.90,991.21,989.75,900.39
9.2401,9.2401,983.40,973.63,978.03,983.89
9.2401,9.2401,973.14,973.63,960.45,973.63
9.2401,9.2401,972.66,974.61,-994.63,973.63
9.2401,9.2401,989.75,980.47,905.76,989.75
9.2401,9.2401,914.06,908.20,751.46,915.53
9.2401,9.2401,-970.21,-903.32,-942.87,-972.17
9.2842,9.2842,853.52,365.23,653.81,864.26
9.2842,9.2842,-609.86,-979.00,-753.42,-596.19
9.2842,9.2842,-1000.00,-1000.00,-1000.00,-1000.00
9.2842,9.2842,-925.78,-958.50,-935.06,-925.78
9.2842,9.2842,-1000.00,-1000.00,-984.38,-1000.00
9.2842,9.2842,-1000.00,-925.78,-974.12,-1000.00
9.2842,9.2842,-934.08,-1000.00,-974.61,-934.08
9.2842,9.2842,-1000.00,-592.77,-1000.00,-1000.00
9.2842,9.2842,-406.25,865.72,29.79,-406.25
9.2842,9.2842,946.78,-972.66,-929.20,947.27
9.2842,9.2842,993.65,916.02,933.11,994.63
9.2842,9.2842,929.69,989.75,969.73,930.66
9.3267,9.3267,984.86,973.63,952.64,985.35
9.3267,9.3267,975.10,979.00,-978.03,974.12
9.3267,9.3267,970.21,953.61,861.33,980.96
9.3267,9.3267,919.43,945.80,617.19,906.74
9.3267,9.3267,-910.64,-938.48,-928.22,-903.32
9.3267,9.3267,182.62,-104.49,170.90,379.39
9.3267,9.3267,-1000.00,-1000.00,-1000.00,-974.12
9.3267,9.3267,-990.23,-951.66,-987.30,-1000.00
9.3267,9.3267,-972.66,-993.16,-973.14,-957.52
9.3267,9.3267,-1000.00,-1000.00,-979.49,-1000.00
9.3267,9.3267,-1000.00,-1000.00,-991.21,-1000.00
9.3267,9.3267,-1000.00,-1000.00,-998.05,-1000.00
9.3717,9.3717,-1000.00,-1000.00,-1000.00,-1000.00
9.3717,9.3717,-1000.00,-949.71,-860.35,-1000.00
9.3717,9.3717,-1000.00,-1000.00,-882.81,-1000.00
9.3717,9.3717,-927.73,-947.27,-1000.00,-927.25
9.3717,9.3717,-1000.00,481.45,241.70,-1000.00
9.3717,9.3717,-679.69,-895.51,-903.81,-665.04
9.3717,9.3717,799.80,898.93,915.53,811.52
9.3717,9.3717,-954.59,987.30,970.21,-957.03
9.3717,9.3717,908.69,973.63,952.15,910.64
9.3717,9.3717,990.23,973.63,959.47,990.72
9.3717,9.3717,973.14,973.63,985.35,973.63
9.3717,9.3717,989.26,989.75,998.05,990.23
9.4187,9.4187,915.04,915.53,641.60,915.53
9.4188,9.4188,-973.14,-971.68,897.95,-972.17
9.4188,9.4188,863.28,861.82,895.51,863.77
9.4188,9.4188,-596.68,-599.12,-637.70,-596.68
9.4188,9.4188,-1000.00,-1000.00,-1000.00,-1000.00
9.4188,9.4188,-925.78,-925.78,-929.69,-925.78
9.4188,9.4188,-1000.00,-1000.00,-1000.00,-1000.00
9.4188,9.4188,-1000.00,-942.38,-1000.00,-1000.00
9.4188,9.4188,-942.38,-1000.00,-940.92,-942.38
9.4188,9.4188,-1000.00,-887.70,-1000.00,-1000.00
9.4188,9.4188,-891.11,573.73,-847.17,-891.11
9.4188,9.4188,569.34,-907.71,638.67,569.82
9.4633,9.4633,-907.71,898.93,-930.66,-906.74
9.4633,9.4633,897.95,989.75,810.06,898.93
9.4634,9.4634,988.77,973.63,960.45,989.75
9.4634,9.4634,972.66,973.63,986.82,973.63
9.4634,9.4634,989.26,991.21,-994.14,990.23
9.4634,9.4634,915.04,909.67,590.82,915.53
9.4634,9.4634,-973.14,-953.13,838.87,-972.17
9.4634,9.4634,863.28,797.36,908.69,864.26
9.4634,9.4634,-596.68,-683.11,-642.09,-596.68
9.4634,9.4634,-1000.00,-1000.00,-1000.00,-1000.00
9.4634,9.4634,-925.78,-927.73,-926.27,-925.78
9.4634,9.4634,-1000.00,-1000.00,-1000.00,-1000.00
9.5245,9.5245,-1000.00,-1000.00,-1000.00,-1000.00
9.5245,9.5245,-1000.00,-1000.00,-989.75,-1000.00
9.5245,9.5245,-1000.00,-1000.00,-1000.00,-1000.00
9.5245,9.5245,-1000.00,-1000.00,-947.27,-1000.00
9.5245,9.5245,-1000.00,-929.20,-796.39,-1000.00
9.5245,9.5245,-942.38,-1000.00,-1000.00,-942.38
9.5245,9.5245,-1000.00,-508.79,-724.12,-1000.00
9.5245,9.5245,-891.11,902.83,743.16,-891.11
9.5245,9.5245,568.85,-987.30,-954.59,569.82
9.5245,9.5245,-907.71,922.85,912.60,-907.23
9.5245,9.5245,897.95,987.79,978.03,898.93
9.5245,9.5245,988.77,973.63,962.40,989.75
9.5689,9.5689,972.66,973.63,975.10,973.63
9.5689,9.5689,976.56,984.38,982.42,975.59
9.5689,9.5689,958.50,935.55,940.43,971.19
9.5689,9.5689,935.55,980.47,937.50,919.92
9.5689,9.5689,-926.76,995.12,-955.08,-909.67
9.5689,9.5689,-16.60,-355.47,-123.05,183.59
9.5689,9.5689,-1000.00,-1000.00,-1000.00,-1000.00
9.5689,9.5689,-962.40,-929.69,-959.96,-990.23
9.5689,9.5689,-987.30,-1000.00,-978.52,-972.66
9.5689,9.5689,-1000.00,-970.70,-981.93,-1000.00
9.5689,9.5689,-973.14,-988.77,-958.01,-973.14
9.5689,9.5689,-984.38,-1000.00,-1000.00,-983.89
9.6117,9.6117,-1000.00,220.70,-986.33,-1000.00
9.6117,9.6117,190.92,-886.72,389.65,190.92
9.6117,9.6117,-888.18,909.18,-883.30,-887.70
9.6117,9.6117,910.16,976.07,869.14,910.64
9.6117,9.6117,973.63,974.12,947.27,974.12
9.6117,9.6117,973.14,973.63,972.66,974.12
9.6117,9.6117,982.91,988.28,-994.63,983.40
9.6117,9.6117,936.52,922.85,869.14,937.99
9.6117,9.6117,975.10,-990.72,879.39,973.63
9.6117,9.6117,-995.12,920.90,994.14,-989.26
9.6117,9.6117,-330.57,-507.81,-379.88,-317.87
9.6117,9.6117,-1000.00,-1000.00,-1000.00,-1000.00
9.6567,9.6567,-930.66,-925.29,-931.15,-931.15
9.6567,9.6567,-1000.00,-1000.00,-1000.00,-1000.00
9.6567,9.6567,-1000.00,-1000.00,-989.26,-1000.00
9.6567,9.6567,-1000.00,-1000.00,-988.77,-1000.00
9.6567,9.6567,-1000.00,-1000.00,-1000.00,-1000.00
9.6567,9.6567,-1000.00,-1000.00,-1000.00,-1000.00
9.6567,9.6567,-1000.00,-942.38,-684.57,-1000.00
9.6567,9.6567,-986.33,-1000.00,-925.78,-986.33
9.6567,9.6567,-963.38,-891.11,-969.73,-963.38
9.6567,9.6567,-1000.00,569.82,531.25,-1000.00
9.6567,9.6567,-10.74,-906.74,-907.23,-10.25
9.6567,9.6567,-929.20,898.44,901.37,-928.71
9.7046,9.7046,934.57,989.75,982.91,935.55
9.7046,9.7046,959.96,973.63,969.73,960.45
9.7047,9.7047,976.56,973.63,956.54,977.05
9.7047,9.7047,973.14,973.63,-995.61,973.63
9.7047,9.7047,990.23,991.21,939.45,990.23
9.7047,9.7047,908.69,900.88,635.25,916.02
9.7047,9.7047,-954.59,-919.92,-996.58,-972.17
9.7047,9.7047,799.80,648.44,757.32,863.77
9.7047,9.7047,-679.69,-830.57,-744.14,-596.68
9.7047,9.7047,-1000.00,-1000.00,-1000.00,-1000.00
9.7047,9.7047,-927.73,-936.52,-936.04,-925.78
9.7047,9.7047,-1000.00,-1000.00,-995.12,-1000.00
9.7497,9.7497,-1000.00,-928.71,-999.02,-1000.00
9.7497,9.7497,-935.55,-1000.00,-935.06,-933.59
9.7497,9.7497,-1000.00,-703.61,-1000.00,-1000.00
9.7497,9.7497,-812.01,778.32,-598.14,-790.04
9.7497,9.7497,668.46,-948.24,847.66,693.36
9.7497,9.7497,-924.32,907.71,-987.79,-929.20
9.7497,9.7497,900.88,991.21,889.65,902.83
9.7497,9.7497,990.23,973.63,959.47,991.21
9.7497,9.7497,973.14,973.63,-986.82,973.63
9.7497,9.7497,990.23,988.77,938.96,991.21
9.7497,9.7497,900.39,899.41,352.05,904.30
9.7497,9.7497,-921.88,-906.25,918.46,-936.52
9.7921,9.7921,655.27,549.32,727.54,729.49
9.7921,9.7921,-824.71,-899.90,-862.30,-756.35
9.7921,9.7921,-1000.00,-1000.00,-1000.00,-1000.00
9.7921,9.7921,-936.04,-944.34,-938.48,-931.15
9.7921,9.7921,-1000.00,-1000.00,-1000.00,-1000.00
9.7921,9.7921,-1000.00,-1000.00,-993.65,-1000.00
9.7921,9.7921,-1000.00,-1000.00,-1000.00,-1000.00
9.7921,9.7921,-1000.00,-1000.00,-1000.00,-1000.00
9.7921,9.7921,-1000.00,-973.14,-988.77,-1000.00
9.7921,9.7921,-1000.00,-983.89,-946.29,-1000.00
9.7921,9.7921,-942.38,-1000.00,-1000.00,-941.89
9.7921,9.7921,-1000.00,191.41,-186.52,-1000.00
9.8374,9.8374,-891.11,-887.21,959.96,-885.25
9.8374,9.8374,569.34,910.64,948.24,577.15
9.8374,9.8374,-907.71,974.12,954.10,-908.20
9.8374,9.8374,897.95,973.63,939.94,898.93
9.8374,9.8374,988.77,973.63,960.45,989.75
9.8374,9.8374,973.14,973.63,972.17,973.63
9.8374,9.8374,988.28,990.23,-986.82,986.82
9.8374,9.8374,920.41,915.53,799.32,927.25
9.8374,9.8374,-987.30,-972.17,892.58,999.51
9.8374,9.8374,906.25,864.26,919.92,946.78
9.8374,9.8374,-529.30,-596.19,-555.66,-458.01
9.8374,9.8374,-1000.00,-1000.00,-1000.00,-1000.00
9.8991,9.8991,-925.29,-925.78,-925.78,-926.27
9.8991,9.8991,-1000.00,-1000.00,-1000.00,-1000.00
9.8991,9.8991,-1000.00,-942.38,-1000.00,-1000.00
9.8991,9.8991,-949.71,-1000.00,-942.38,-946.78
9.8991,9.8991,-1000.00,-891.11,-1000.00,-1000.00
9.8991,9.8991,-947.27,569.82,-893.55,-926.76
9.8991,9.8991,480.96,-906.74,571.29,513.67
9.8991,9.8991,-896.97,898.93,-901.37,-899.90
9.8991,9.8991,897.95,989.75,817.38,898.93
9.8991,9.8991,986.33,973.63,945.31,988.28
9.8991,9.8991,973.14,973.63,981.45,973.63
9.8991,9.8991,989.26,990.23,-994.63,989.75
9.9444,9.9444,915.04,916.02,826.66,915.53
9.9445,9.9445,-972.66,-972.17,925.78,-972.66
9.9445,9.9445,863.28,864.26,884.28,864.26
9.9445,9.9445,-596.68,-596.68,-601.07,-596.68
9.9445,9.9445,-1000.00,-1000.00,-1000.00,-1000.00
9.9445,9.9445,-925.78,-925.78,-926.76,-925.78
9.9445,9.9445,-1000.00,-1000.00,-1000.00,-1000.00
9.9445,9.9445,-1000.00,-1000.00,-999.02,-1000.00
9.9445,9.9445,-1000.00,-1000.00,-983.40,-1000.00
9.9445,9.9445,-1000.00,-1000.00,-1000.00,-1000.00
9.9445,9.9445,-1000.00,-1000.00,-966.31,-1000.00
9.9445,9.9445,-1000.00,-936.52,-675.29,-1000.00
9.9870,9.9870,-957.03,-1000.00,-1000.00,-957.03
9.9870,9.9870,-1000.00,-827.15,-908.69,-1000.00
9.9870,9.9870,-996.09,652.83,602.05,-996.09
9.9870,9.9870,387.21,-920.41,-913.09,388.18
9.9871,9.9871,-889.65,900.88,899.41,-888.67
9.9871,9.9871,899.90,991.21,989.75,900.39
9.9871,9.9871,983.40,973.63,977.54,983.89
9.9871,9.9871,972.66,973.63,961.43,973.63
9.9871,9.9871,973.14,975.59,-996.58,973.63
9.9871,9.9871,988.77,970.21,906.25,991.21
9.9871,9.9871,898.44,921.39,765.63,900.88
9.9871,9.9871,-907.71,-911.13,-910.64,-920.90
10.0331,10.0331,568.85,164.55,383.79,652.83
10.0331,10.0331,-891.11,-1000.00,-949.71,-827.15
10.0331,10.0331,-1000.00,-987.79,-1000.00,-1000.00
10.0331,10.0331,-942.38,-978.03,-952.15,-936.52
10.0331,10.0331,-1000.00,-991.21,-966.31,-1000.00
10.0331,10.0331,-1000.00,-966.31,-972.66,-1000.00
10.0331,10.0331,-934.08,-1000.00,-972.17,-934.08
10.0331,10.0331,-1000.00,21.48,-1000.00,-1000.00
10.0331,10.0331,-406.25,-921.88,-22.46,-406.25
10.0331,10.0331,946.78,931.64,-941.89,947.27
10.0331,10.0331,994.14,962.40,939.94,994.14
10.0331,10.0331,930.18,977.05,965.33,930.18
10.0787,10.0787,984.86,973.63,955.57,985.35
10.0788,10.0788,974.61,978.52,-978.03,974.12
10.0788,10.0788,970.21,956.54,864.75,980.96
10.0788,10.0788,918.95,940.43,632.32,907.23
10.0788,10.0788,-910.64,-932.13,-921.88,-903.32
10.0788,10.0788,182.62,-59.08,199.22,379.39
10.0788,10.0788,-1000.00,-1000.00,-1000.00,-974.12
10.0788,10.0788,-990.23,-957.03,-991.70,-1000.00
10.0788,10.0788,-972.66,-990.23,-971.19,-957.52
10.0788,10.0788,-1000.00,-1000.00,-980.96,-1000.00
10.0788,10.0788,-1000.00,-1000.00,-991.21,-1000.00
10.0788,10.0788,-1000.00,-1000.00,-998.05,-1000.00
10.1232,10.1232,-1000.00,-1000.00,-1000.00,-1000.00
10.1232,10.1232,-1000.00,-949.71,-865.72,-1000.00
10.1232,10.1232,-1000.00,-1000.00,-892.09,-1000.00
10.1232,10.1232,-927.25,-947.27,-1000.00,-926.76
10.1232,10.1232,-1000.00,481.45,244.63,-1000.00
10.1232,10.1232,-658.69,-896.00,-931.15,-649.41
10.1232,10.1232,815.92,898.44,912.60,823.73
10.1232,10.1232,-958.98,987.30,973.14,-960.45
10.1232,10.1232,910.64,973.63,958.98,912.11
10.1232,10.1232,990.23,973.63,961.43,990.72
10.1232,10.1232,972.66,973.63,985.84,973.63
10.1232,10.1232,989.26,990.23,996.58,990.23
10.1721,10.1721,915.04,915.04,630.86,915.53
10.1721,10.1721,-973.14,-970.21,896.48,-972.17
10.1721,10.1721,863.28,855.96,899.41,864.26
10.1721,10.1721,-596.68,-606.93,-635.74,-596.68
10.1721,10.1721,-1000.00,-1000.00,-1000.00,-1000.00
10.1721,10.1721,-925.78,-925.78,-929.20,-925.78
10.1721,10.1721,-1000.00,-1000.00,-1000.00,-1000.00
10.1721,10.1721,-1000.00,-942.38,-1000.00,-1000.00
10.1721,10.1721,-942.38,-1000.00,-940.92,-942.38
10.1721,10.1721,-1000.00,-891.11,-1000.00,-1000.00
10.1721,10.1721,-891.11,569.82,-850.10,-891.11
10.1721,10.1721,569.34,-906.74,634.28,569.82
10.2141,10.2141,-907.71,898.93,-929.20,-906.74
10.2141,10.2141,897.95,989.75,813.96,898.44
10.2141,10.2141,988.77,973.63,961.91,989.75
10.2141,10.2141,973.14,973.63,987.79,973.63
10.2141,10.2141,989.26,991.21,-988.28,989.75
10.2141,10.2141,915.04,909.67,591.31,915.53
10.2141,10.2141,-973.14,-954.10,831.05,-972.17
10.2141,10.2141,863.28,800.78,911.13,864.26
10.2141,10.2141,-596.68,-679.69,-639.65,-596.68
10.2141,10.2141,-1000.00,-1000.00,-1000.00,-1000.00
10.2141,10.2141,-925.78,-927.73,-926.27,-925.78
10.2141,10.2141,-1000.00,-1000.00,-1000.00,-1000.00
10.2715,10.2715,-1000.00,-1000.00,-1000.00,-1000.00
10.2715,10.2715,-1000.00,-1000.00,-990.23,-1000.00
10.2715,10.2715,-1000.00,-1000.00,-1000.00,-1000.00
10.2715,10.2715,-1000.00,-1000.00,-952.64,-1000.00
10.2715,10.2715,-1000.00,-930.66,-807.62,-1000.00
10.2715,10.2715,-942.38,-1000.00,-1000.00,-942.38
10.2715,10.2715,-1000.00,-480.96,-719.73,-1000.00
10.2715,10.2715,-891.11,915.04,741.70,-891.11
10.2715,10.2715,568.85,-992.68,-958.01,569.82
10.2716,10.2716,-907.71,924.80,914.06,-906.74
10.2716,10.2716,897.95,987.30,977.05,898.93
10.2716,10.2716,988.77,973.63,961.43,989.75
10.3196,10.3196,973.14,973.63,975.59,973.63
10.3197,10.3197,979.49,985.84,984.38,977.54
10.3197,10.3197,945.80,930.18,932.13,959.47
10.3197,10.3197,956.54,991.70,948.24,936.52
10.3197,10.3197,-955.57,967.77,-973.14,-926.27
10.3197,10.3197,-218.26,-417.48,-235.35,-16.60
10.3197,10.3197,-1000.00,-1000.00,-1000.00,-1000.00
